Wavelength [um]	   Norm. Transmission [%]
9.000	     0.000030
9.001	     0.000030
9.002	     0.000029
9.003	     0.000030
9.004	     0.000031
9.005	     0.000032
9.006	     0.000034
9.007	     0.000037
9.008	     0.000039
9.009	     0.000042
9.010	     0.000045
9.011	     0.000049
9.012	     0.000053
9.013	     0.000058
9.014	     0.000063
9.015	     0.000067
9.016	     0.000072
9.017	     0.000077
9.018	     0.000081
9.019	     0.000086
9.020	     0.000090
9.021	     0.000095
9.022	     0.000100
9.023	     0.000104
9.024	     0.000109
9.025	     0.000113
9.026	     0.000116
9.027	     0.000120
9.028	     0.000123
9.029	     0.000126
9.030	     0.000129
9.031	     0.000132
9.032	     0.000135
9.033	     0.000138
9.034	     0.000140
9.035	     0.000143
9.036	     0.000145
9.037	     0.000148
9.038	     0.000150
9.039	     0.000152
9.040	     0.000155
9.041	     0.000157
9.042	     0.000160
9.043	     0.000164
9.044	     0.000167
9.045	     0.000170
9.046	     0.000174
9.047	     0.000178
9.048	     0.000182
9.049	     0.000186
9.050	     0.000191
9.051	     0.000195
9.052	     0.000200
9.053	     0.000206
9.054	     0.000211
9.055	     0.000217
9.056	     0.000222
9.057	     0.000227
9.058	     0.000232
9.059	     0.000237
9.060	     0.000241
9.061	     0.000246
9.062	     0.000251
9.063	     0.000255
9.064	     0.000258
9.065	     0.000262
9.066	     0.000264
9.067	     0.000266
9.068	     0.000268
9.069	     0.000269
9.070	     0.000269
9.071	     0.000270
9.072	     0.000269
9.073	     0.000268
9.074	     0.000267
9.075	     0.000265
9.076	     0.000262
9.077	     0.000258
9.078	     0.000254
9.079	     0.000250
9.080	     0.000245
9.081	     0.000240
9.082	     0.000235
9.083	     0.000230
9.084	     0.000225
9.085	     0.000219
9.086	     0.000213
9.087	     0.000207
9.088	     0.000201
9.089	     0.000195
9.090	     0.000189
9.091	     0.000184
9.092	     0.000179
9.093	     0.000174
9.094	     0.000169
9.095	     0.000164
9.096	     0.000160
9.097	     0.000156
9.098	     0.000153
9.099	     0.000149
9.100	     0.000147
9.101	     0.000145
9.102	     0.000143
9.103	     0.000141
9.104	     0.000140
9.105	     0.000139
9.106	     0.000139
9.107	     0.000138
9.108	     0.000138
9.109	     0.000139
9.110	     0.000139
9.111	     0.000140
9.112	     0.000142
9.113	     0.000143
9.114	     0.000145
9.115	     0.000147
9.116	     0.000149
9.117	     0.000151
9.118	     0.000153
9.119	     0.000156
9.120	     0.000158
9.121	     0.000161
9.122	     0.000164
9.123	     0.000167
9.124	     0.000170
9.125	     0.000173
9.126	     0.000177
9.127	     0.000180
9.128	     0.000184
9.129	     0.000187
9.130	     0.000191
9.131	     0.000195
9.132	     0.000199
9.133	     0.000203
9.134	     0.000207
9.135	     0.000211
9.136	     0.000215
9.137	     0.000219
9.138	     0.000223
9.139	     0.000227
9.140	     0.000231
9.141	     0.000235
9.142	     0.000239
9.143	     0.000243
9.144	     0.000247
9.145	     0.000251
9.146	     0.000255
9.147	     0.000259
9.148	     0.000263
9.149	     0.000267
9.150	     0.000270
9.151	     0.000274
9.152	     0.000278
9.153	     0.000281
9.154	     0.000285
9.155	     0.000288
9.156	     0.000292
9.157	     0.000295
9.158	     0.000299
9.159	     0.000303
9.160	     0.000306
9.161	     0.000310
9.162	     0.000314
9.163	     0.000317
9.164	     0.000321
9.165	     0.000324
9.166	     0.000328
9.167	     0.000331
9.168	     0.000335
9.169	     0.000338
9.170	     0.000341
9.171	     0.000345
9.172	     0.000348
9.173	     0.000351
9.174	     0.000353
9.175	     0.000356
9.176	     0.000358
9.177	     0.000361
9.178	     0.000363
9.179	     0.000365
9.180	     0.000367
9.181	     0.000368
9.182	     0.000369
9.183	     0.000369
9.184	     0.000369
9.185	     0.000369
9.186	     0.000368
9.187	     0.000367
9.188	     0.000365
9.189	     0.000363
9.190	     0.000361
9.191	     0.000358
9.192	     0.000355
9.193	     0.000351
9.194	     0.000347
9.195	     0.000342
9.196	     0.000337
9.197	     0.000332
9.198	     0.000327
9.199	     0.000321
9.200	     0.000316
9.201	     0.000311
9.202	     0.000305
9.203	     0.000299
9.204	     0.000293
9.205	     0.000287
9.206	     0.000281
9.207	     0.000276
9.208	     0.000271
9.209	     0.000267
9.210	     0.000263
9.211	     0.000259
9.212	     0.000255
9.213	     0.000252
9.214	     0.000249
9.215	     0.000247
9.216	     0.000245
9.217	     0.000244
9.218	     0.000243
9.219	     0.000243
9.220	     0.000244
9.221	     0.000245
9.222	     0.000247
9.223	     0.000248
9.224	     0.000250
9.225	     0.000253
9.226	     0.000255
9.227	     0.000259
9.228	     0.000263
9.229	     0.000267
9.230	     0.000271
9.231	     0.000275
9.232	     0.000279
9.233	     0.000283
9.234	     0.000287
9.235	     0.000291
9.236	     0.000294
9.237	     0.000298
9.238	     0.000302
9.239	     0.000305
9.240	     0.000308
9.241	     0.000310
9.242	     0.000312
9.243	     0.000313
9.244	     0.000314
9.245	     0.000314
9.246	     0.000314
9.247	     0.000313
9.248	     0.000312
9.249	     0.000310
9.250	     0.000308
9.251	     0.000305
9.252	     0.000301
9.253	     0.000297
9.254	     0.000292
9.255	     0.000287
9.256	     0.000281
9.257	     0.000275
9.258	     0.000268
9.259	     0.000262
9.260	     0.000255
9.261	     0.000248
9.262	     0.000240
9.263	     0.000232
9.264	     0.000224
9.265	     0.000216
9.266	     0.000208
9.267	     0.000200
9.268	     0.000193
9.269	     0.000186
9.270	     0.000179
9.271	     0.000172
9.272	     0.000165
9.273	     0.000158
9.274	     0.000152
9.275	     0.000147
9.276	     0.000142
9.277	     0.000137
9.278	     0.000133
9.279	     0.000130
9.280	     0.000127
9.281	     0.000125
9.282	     0.000123
9.283	     0.000121
9.284	     0.000120
9.285	     0.000120
9.286	     0.000121
9.287	     0.000122
9.288	     0.000123
9.289	     0.000125
9.290	     0.000128
9.291	     0.000131
9.292	     0.000135
9.293	     0.000139
9.294	     0.000143
9.295	     0.000148
9.296	     0.000153
9.297	     0.000159
9.298	     0.000165
9.299	     0.000171
9.300	     0.000178
9.301	     0.000185
9.302	     0.000191
9.303	     0.000198
9.304	     0.000206
9.305	     0.000213
9.306	     0.000221
9.307	     0.000229
9.308	     0.000237
9.309	     0.000245
9.310	     0.000252
9.311	     0.000260
9.312	     0.000268
9.313	     0.000275
9.314	     0.000283
9.315	     0.000291
9.316	     0.000298
9.317	     0.000306
9.318	     0.000313
9.319	     0.000320
9.320	     0.000326
9.321	     0.000332
9.322	     0.000339
9.323	     0.000345
9.324	     0.000350
9.325	     0.000356
9.326	     0.000361
9.327	     0.000365
9.328	     0.000370
9.329	     0.000373
9.330	     0.000377
9.331	     0.000380
9.332	     0.000382
9.333	     0.000384
9.334	     0.000386
9.335	     0.000387
9.336	     0.000389
9.337	     0.000389
9.338	     0.000390
9.339	     0.000390
9.340	     0.000389
9.341	     0.000388
9.342	     0.000387
9.343	     0.000386
9.344	     0.000385
9.345	     0.000383
9.346	     0.000382
9.347	     0.000380
9.348	     0.000378
9.349	     0.000376
9.350	     0.000374
9.351	     0.000371
9.352	     0.000369
9.353	     0.000368
9.354	     0.000366
9.355	     0.000365
9.356	     0.000364
9.357	     0.000364
9.358	     0.000363
9.359	     0.000363
9.360	     0.000363
9.361	     0.000364
9.362	     0.000365
9.363	     0.000367
9.364	     0.000369
9.365	     0.000371
9.366	     0.000374
9.367	     0.000378
9.368	     0.000382
9.369	     0.000386
9.370	     0.000390
9.371	     0.000396
9.372	     0.000401
9.373	     0.000407
9.374	     0.000413
9.375	     0.000420
9.376	     0.000427
9.377	     0.000435
9.378	     0.000443
9.379	     0.000451
9.380	     0.000460
9.381	     0.000468
9.382	     0.000477
9.383	     0.000486
9.384	     0.000496
9.385	     0.000505
9.386	     0.000515
9.387	     0.000525
9.388	     0.000536
9.389	     0.000546
9.390	     0.000556
9.391	     0.000567
9.392	     0.000577
9.393	     0.000588
9.394	     0.000599
9.395	     0.000611
9.396	     0.000622
9.397	     0.000633
9.398	     0.000644
9.399	     0.000654
9.400	     0.000665
9.401	     0.000676
9.402	     0.000687
9.403	     0.000698
9.404	     0.000709
9.405	     0.000719
9.406	     0.000730
9.407	     0.000739
9.408	     0.000748
9.409	     0.000757
9.410	     0.000766
9.411	     0.000775
9.412	     0.000783
9.413	     0.000791
9.414	     0.000798
9.415	     0.000804
9.416	     0.000810
9.417	     0.000815
9.418	     0.000819
9.419	     0.000823
9.420	     0.000826
9.421	     0.000828
9.422	     0.000830
9.423	     0.000831
9.424	     0.000831
9.425	     0.000831
9.426	     0.000830
9.427	     0.000827
9.428	     0.000825
9.429	     0.000821
9.430	     0.000817
9.431	     0.000812
9.432	     0.000808
9.433	     0.000803
9.434	     0.000797
9.435	     0.000792
9.436	     0.000786
9.437	     0.000779
9.438	     0.000773
9.439	     0.000766
9.440	     0.000759
9.441	     0.000752
9.442	     0.000746
9.443	     0.000740
9.444	     0.000735
9.445	     0.000730
9.446	     0.000725
9.447	     0.000720
9.448	     0.000715
9.449	     0.000711
9.450	     0.000708
9.451	     0.000705
9.452	     0.000703
9.453	     0.000701
9.454	     0.000701
9.455	     0.000701
9.456	     0.000701
9.457	     0.000702
9.458	     0.000703
9.459	     0.000705
9.460	     0.000707
9.461	     0.000709
9.462	     0.000712
9.463	     0.000716
9.464	     0.000719
9.465	     0.000724
9.466	     0.000728
9.467	     0.000732
9.468	     0.000737
9.469	     0.000741
9.470	     0.000744
9.471	     0.000748
9.472	     0.000751
9.473	     0.000755
9.474	     0.000759
9.475	     0.000762
9.476	     0.000765
9.477	     0.000767
9.478	     0.000769
9.479	     0.000771
9.480	     0.000771
9.481	     0.000772
9.482	     0.000771
9.483	     0.000771
9.484	     0.000770
9.485	     0.000769
9.486	     0.000767
9.487	     0.000765
9.488	     0.000763
9.489	     0.000760
9.490	     0.000756
9.491	     0.000752
9.492	     0.000748
9.493	     0.000743
9.494	     0.000739
9.495	     0.000735
9.496	     0.000731
9.497	     0.000727
9.498	     0.000723
9.499	     0.000719
9.500	     0.000715
9.501	     0.000711
9.502	     0.000708
9.503	     0.000705
9.504	     0.000703
9.505	     0.000701
9.506	     0.000700
9.507	     0.000700
9.508	     0.000701
9.509	     0.000702
9.510	     0.000703
9.511	     0.000706
9.512	     0.000709
9.513	     0.000713
9.514	     0.000718
9.515	     0.000724
9.516	     0.000731
9.517	     0.000739
9.518	     0.000748
9.519	     0.000757
9.520	     0.000768
9.521	     0.000779
9.522	     0.000791
9.523	     0.000804
9.524	     0.000817
9.525	     0.000831
9.526	     0.000846
9.527	     0.000862
9.528	     0.000878
9.529	     0.000896
9.530	     0.000913
9.531	     0.000931
9.532	     0.000948
9.533	     0.000966
9.534	     0.000984
9.535	     0.001003
9.536	     0.001021
9.537	     0.001041
9.538	     0.001060
9.539	     0.001079
9.540	     0.001098
9.541	     0.001116
9.542	     0.001134
9.543	     0.001152
9.544	     0.001170
9.545	     0.001187
9.546	     0.001205
9.547	     0.001222
9.548	     0.001239
9.549	     0.001255
9.550	     0.001271
9.551	     0.001286
9.552	     0.001300
9.553	     0.001314
9.554	     0.001328
9.555	     0.001341
9.556	     0.001354
9.557	     0.001366
9.558	     0.001378
9.559	     0.001390
9.560	     0.001401
9.561	     0.001412
9.562	     0.001422
9.563	     0.001432
9.564	     0.001441
9.565	     0.001450
9.566	     0.001459
9.567	     0.001468
9.568	     0.001477
9.569	     0.001485
9.570	     0.001494
9.571	     0.001503
9.572	     0.001511
9.573	     0.001519
9.574	     0.001527
9.575	     0.001535
9.576	     0.001543
9.577	     0.001551
9.578	     0.001560
9.579	     0.001568
9.580	     0.001577
9.581	     0.001586
9.582	     0.001595
9.583	     0.001605
9.584	     0.001614
9.585	     0.001624
9.586	     0.001634
9.587	     0.001644
9.588	     0.001654
9.589	     0.001665
9.590	     0.001676
9.591	     0.001687
9.592	     0.001698
9.593	     0.001710
9.594	     0.001721
9.595	     0.001733
9.596	     0.001745
9.597	     0.001757
9.598	     0.001770
9.599	     0.001782
9.600	     0.001795
9.601	     0.001808
9.602	     0.001820
9.603	     0.001833
9.604	     0.001847
9.605	     0.001860
9.606	     0.001873
9.607	     0.001886
9.608	     0.001899
9.609	     0.001913
9.610	     0.001926
9.611	     0.001940
9.612	     0.001953
9.613	     0.001967
9.614	     0.001980
9.615	     0.001994
9.616	     0.002008
9.617	     0.002022
9.618	     0.002036
9.619	     0.002050
9.620	     0.002065
9.621	     0.002079
9.622	     0.002093
9.623	     0.002108
9.624	     0.002123
9.625	     0.002138
9.626	     0.002153
9.627	     0.002168
9.628	     0.002184
9.629	     0.002199
9.630	     0.002215
9.631	     0.002231
9.632	     0.002247
9.633	     0.002263
9.634	     0.002279
9.635	     0.002295
9.636	     0.002312
9.637	     0.002328
9.638	     0.002345
9.639	     0.002362
9.640	     0.002379
9.641	     0.002396
9.642	     0.002413
9.643	     0.002430
9.644	     0.002447
9.645	     0.002465
9.646	     0.002482
9.647	     0.002500
9.648	     0.002518
9.649	     0.002536
9.650	     0.002554
9.651	     0.002572
9.652	     0.002590
9.653	     0.002609
9.654	     0.002627
9.655	     0.002645
9.656	     0.002664
9.657	     0.002683
9.658	     0.002701
9.659	     0.002720
9.660	     0.002740
9.661	     0.002759
9.662	     0.002779
9.663	     0.002800
9.664	     0.002820
9.665	     0.002841
9.666	     0.002862
9.667	     0.002883
9.668	     0.002905
9.669	     0.002927
9.670	     0.002949
9.671	     0.002971
9.672	     0.002994
9.673	     0.003017
9.674	     0.003041
9.675	     0.003065
9.676	     0.003089
9.677	     0.003114
9.678	     0.003138
9.679	     0.003163
9.680	     0.003189
9.681	     0.003214
9.682	     0.003240
9.683	     0.003266
9.684	     0.003292
9.685	     0.003319
9.686	     0.003345
9.687	     0.003372
9.688	     0.003399
9.689	     0.003426
9.690	     0.003453
9.691	     0.003480
9.692	     0.003508
9.693	     0.003535
9.694	     0.003562
9.695	     0.003590
9.696	     0.003618
9.697	     0.003645
9.698	     0.003674
9.699	     0.003702
9.700	     0.003731
9.701	     0.003759
9.702	     0.003788
9.703	     0.003817
9.704	     0.003846
9.705	     0.003876
9.706	     0.003906
9.707	     0.003936
9.708	     0.003967
9.709	     0.003998
9.710	     0.004030
9.711	     0.004062
9.712	     0.004094
9.713	     0.004127
9.714	     0.004160
9.715	     0.004194
9.716	     0.004228
9.717	     0.004263
9.718	     0.004298
9.719	     0.004334
9.720	     0.004371
9.721	     0.004408
9.722	     0.004446
9.723	     0.004485
9.724	     0.004524
9.725	     0.004564
9.726	     0.004604
9.727	     0.004644
9.728	     0.004685
9.729	     0.004727
9.730	     0.004769
9.731	     0.004812
9.732	     0.004855
9.733	     0.004898
9.734	     0.004942
9.735	     0.004987
9.736	     0.005032
9.737	     0.005078
9.738	     0.005124
9.739	     0.005170
9.740	     0.005218
9.741	     0.005265
9.742	     0.005314
9.743	     0.005362
9.744	     0.005412
9.745	     0.005461
9.746	     0.005512
9.747	     0.005563
9.748	     0.005614
9.749	     0.005665
9.750	     0.005717
9.751	     0.005770
9.752	     0.005823
9.753	     0.005877
9.754	     0.005931
9.755	     0.005987
9.756	     0.006043
9.757	     0.006099
9.758	     0.006157
9.759	     0.006215
9.760	     0.006274
9.761	     0.006333
9.762	     0.006393
9.763	     0.006454
9.764	     0.006515
9.765	     0.006576
9.766	     0.006638
9.767	     0.006701
9.768	     0.006764
9.769	     0.006828
9.770	     0.006892
9.771	     0.006957
9.772	     0.007022
9.773	     0.007087
9.774	     0.007152
9.775	     0.007218
9.776	     0.007284
9.777	     0.007350
9.778	     0.007417
9.779	     0.007483
9.780	     0.007551
9.781	     0.007618
9.782	     0.007685
9.783	     0.007752
9.784	     0.007820
9.785	     0.007886
9.786	     0.007953
9.787	     0.008020
9.788	     0.008087
9.789	     0.008153
9.790	     0.008220
9.791	     0.008287
9.792	     0.008354
9.793	     0.008421
9.794	     0.008489
9.795	     0.008556
9.796	     0.008624
9.797	     0.008691
9.798	     0.008759
9.799	     0.008826
9.800	     0.008894
9.801	     0.008963
9.802	     0.009032
9.803	     0.009102
9.804	     0.009172
9.805	     0.009243
9.806	     0.009315
9.807	     0.009386
9.808	     0.009458
9.809	     0.009531
9.810	     0.009605
9.811	     0.009679
9.812	     0.009755
9.813	     0.009832
9.814	     0.009911
9.815	     0.009990
9.816	     0.010070
9.817	     0.010152
9.818	     0.010234
9.819	     0.010318
9.820	     0.010403
9.821	     0.010488
9.822	     0.010576
9.823	     0.010665
9.824	     0.010755
9.825	     0.010846
9.826	     0.010939
9.827	     0.011032
9.828	     0.011127
9.829	     0.011224
9.830	     0.011322
9.831	     0.011421
9.832	     0.011521
9.833	     0.011622
9.834	     0.011725
9.835	     0.011830
9.836	     0.011936
9.837	     0.012043
9.838	     0.012151
9.839	     0.012260
9.840	     0.012371
9.841	     0.012483
9.842	     0.012596
9.843	     0.012710
9.844	     0.012825
9.845	     0.012941
9.846	     0.013059
9.847	     0.013178
9.848	     0.013297
9.849	     0.013418
9.850	     0.013540
9.851	     0.013663
9.852	     0.013787
9.853	     0.013912
9.854	     0.014038
9.855	     0.014165
9.856	     0.014293
9.857	     0.014423
9.858	     0.014553
9.859	     0.014684
9.860	     0.014817
9.861	     0.014951
9.862	     0.015086
9.863	     0.015222
9.864	     0.015360
9.865	     0.015498
9.866	     0.015638
9.867	     0.015779
9.868	     0.015921
9.869	     0.016064
9.870	     0.016210
9.871	     0.016356
9.872	     0.016504
9.873	     0.016653
9.874	     0.016804
9.875	     0.016955
9.876	     0.017108
9.877	     0.017263
9.878	     0.017419
9.879	     0.017577
9.880	     0.017738
9.881	     0.017900
9.882	     0.018065
9.883	     0.018232
9.884	     0.018400
9.885	     0.018571
9.886	     0.018743
9.887	     0.018917
9.888	     0.019094
9.889	     0.019273
9.890	     0.019454
9.891	     0.019637
9.892	     0.019823
9.893	     0.020010
9.894	     0.020200
9.895	     0.020392
9.896	     0.020586
9.897	     0.020782
9.898	     0.020981
9.899	     0.021182
9.900	     0.021386
9.901	     0.021593
9.902	     0.021803
9.903	     0.022016
9.904	     0.022231
9.905	     0.022449
9.906	     0.022669
9.907	     0.022892
9.908	     0.023117
9.909	     0.023344
9.910	     0.023574
9.911	     0.023806
9.912	     0.024040
9.913	     0.024276
9.914	     0.024514
9.915	     0.024755
9.916	     0.024998
9.917	     0.025243
9.918	     0.025492
9.919	     0.025742
9.920	     0.025996
9.921	     0.026252
9.922	     0.026511
9.923	     0.026773
9.924	     0.027037
9.925	     0.027304
9.926	     0.027574
9.927	     0.027846
9.928	     0.028121
9.929	     0.028398
9.930	     0.028677
9.931	     0.028959
9.932	     0.029242
9.933	     0.029528
9.934	     0.029815
9.935	     0.030106
9.936	     0.030399
9.937	     0.030695
9.938	     0.030994
9.939	     0.031297
9.940	     0.031604
9.941	     0.031915
9.942	     0.032230
9.943	     0.032547
9.944	     0.032869
9.945	     0.033193
9.946	     0.033521
9.947	     0.033852
9.948	     0.034187
9.949	     0.034524
9.950	     0.034865
9.951	     0.035209
9.952	     0.035556
9.953	     0.035905
9.954	     0.036257
9.955	     0.036613
9.956	     0.036973
9.957	     0.037337
9.958	     0.037705
9.959	     0.038077
9.960	     0.038455
9.961	     0.038838
9.962	     0.039225
9.963	     0.039616
9.964	     0.040012
9.965	     0.040412
9.966	     0.040816
9.967	     0.041225
9.968	     0.041637
9.969	     0.042054
9.970	     0.042475
9.971	     0.042899
9.972	     0.043326
9.973	     0.043757
9.974	     0.044192
9.975	     0.044631
9.976	     0.045075
9.977	     0.045524
9.978	     0.045979
9.979	     0.046440
9.980	     0.046907
9.981	     0.047381
9.982	     0.047860
9.983	     0.048345
9.984	     0.048836
9.985	     0.049332
9.986	     0.049833
9.987	     0.050340
9.988	     0.050852
9.989	     0.051369
9.990	     0.051891
9.991	     0.052418
9.992	     0.052950
9.993	     0.053486
9.994	     0.054027
9.995	     0.054574
9.996	     0.055127
9.997	     0.055686
9.998	     0.056252
9.999	     0.056824
10.000	     0.057404
10.001	     0.057991
10.002	     0.058585
10.003	     0.059185
10.004	     0.059792
10.005	     0.060406
10.006	     0.061025
10.007	     0.061651
10.008	     0.062283
10.009	     0.062920
10.010	     0.063564
10.011	     0.064212
10.012	     0.064866
10.013	     0.065524
10.014	     0.066189
10.015	     0.066860
10.016	     0.067538
10.017	     0.068223
10.018	     0.068916
10.019	     0.069618
10.020	     0.070329
10.021	     0.071049
10.022	     0.071776
10.023	     0.072510
10.024	     0.073252
10.025	     0.074002
10.026	     0.074761
10.027	     0.075527
10.028	     0.076302
10.029	     0.077085
10.030	     0.077876
10.031	     0.078676
10.032	     0.079482
10.033	     0.080296
10.034	     0.081117
10.035	     0.081947
10.036	     0.082786
10.037	     0.083636
10.038	     0.084495
10.039	     0.085366
10.040	     0.086248
10.041	     0.087141
10.042	     0.088045
10.043	     0.088959
10.044	     0.089882
10.045	     0.090817
10.046	     0.091761
10.047	     0.092716
10.048	     0.093682
10.049	     0.094658
10.050	     0.095646
10.051	     0.096643
10.052	     0.097650
10.053	     0.098667
10.054	     0.099695
10.055	     0.100733
10.056	     0.101782
10.057	     0.102843
10.058	     0.103916
10.059	     0.105001
10.060	     0.106099
10.061	     0.107211
10.062	     0.108334
10.063	     0.109470
10.064	     0.110617
10.065	     0.111777
10.066	     0.112948
10.067	     0.114132
10.068	     0.115328
10.069	     0.116537
10.070	     0.117758
10.071	     0.118991
10.072	     0.120236
10.073	     0.121492
10.074	     0.122761
10.075	     0.124041
10.076	     0.125335
10.077	     0.126641
10.078	     0.127961
10.079	     0.129296
10.080	     0.130645
10.081	     0.132009
10.082	     0.133386
10.083	     0.134776
10.084	     0.136179
10.085	     0.137597
10.086	     0.139028
10.087	     0.140474
10.088	     0.141934
10.089	     0.143409
10.090	     0.144900
10.091	     0.146406
10.092	     0.147927
10.093	     0.149461
10.094	     0.151009
10.095	     0.152572
10.096	     0.154150
10.097	     0.155743
10.098	     0.157353
10.099	     0.158979
10.100	     0.160622
10.101	     0.162283
10.102	     0.163960
10.103	     0.165653
10.104	     0.167362
10.105	     0.169088
10.106	     0.170829
10.107	     0.172588
10.108	     0.174363
10.109	     0.176156
10.110	     0.177966
10.111	     0.179795
10.112	     0.181640
10.113	     0.183502
10.114	     0.185382
10.115	     0.187278
10.116	     0.189191
10.117	     0.191122
10.118	     0.193070
10.119	     0.195037
10.120	     0.197022
10.121	     0.199025
10.122	     0.201047
10.123	     0.203086
10.124	     0.205143
10.125	     0.207217
10.126	     0.209310
10.127	     0.211421
10.128	     0.213550
10.129	     0.215698
10.130	     0.217865
10.131	     0.220052
10.132	     0.222258
10.133	     0.224482
10.134	     0.226725
10.135	     0.228987
10.136	     0.231267
10.137	     0.233566
10.138	     0.235885
10.139	     0.238223
10.140	     0.240580
10.141	     0.242958
10.142	     0.245356
10.143	     0.247773
10.144	     0.250210
10.145	     0.252666
10.146	     0.255141
10.147	     0.257636
10.148	     0.260151
10.149	     0.262686
10.150	     0.265240
10.151	     0.267815
10.152	     0.270410
10.153	     0.273025
10.154	     0.275660
10.155	     0.278315
10.156	     0.280991
10.157	     0.283686
10.158	     0.286401
10.159	     0.289135
10.160	     0.291888
10.161	     0.294661
10.162	     0.297452
10.163	     0.300261
10.164	     0.303090
10.165	     0.305939
10.166	     0.308806
10.167	     0.311693
10.168	     0.314599
10.169	     0.317523
10.170	     0.320466
10.171	     0.323426
10.172	     0.326405
10.173	     0.329402
10.174	     0.332417
10.175	     0.335452
10.176	     0.338505
10.177	     0.341576
10.178	     0.344666
10.179	     0.347773
10.180	     0.350898
10.181	     0.354039
10.182	     0.357197
10.183	     0.360371
10.184	     0.363562
10.185	     0.366770
10.186	     0.369996
10.187	     0.373239
10.188	     0.376498
10.189	     0.379775
10.190	     0.383067
10.191	     0.386375
10.192	     0.389698
10.193	     0.393036
10.194	     0.396389
10.195	     0.399758
10.196	     0.403145
10.197	     0.406547
10.198	     0.409966
10.199	     0.413399
10.200	     0.416847
10.201	     0.420308
10.202	     0.423781
10.203	     0.427267
10.204	     0.430764
10.205	     0.434275
10.206	     0.437800
10.207	     0.441340
10.208	     0.444893
10.209	     0.448459
10.210	     0.452037
10.211	     0.455625
10.212	     0.459223
10.213	     0.462830
10.214	     0.466446
10.215	     0.470069
10.216	     0.473705
10.217	     0.477352
10.218	     0.481011
10.219	     0.484680
10.220	     0.488357
10.221	     0.492041
10.222	     0.495733
10.223	     0.499429
10.224	     0.503129
10.225	     0.506833
10.226	     0.510543
10.227	     0.514261
10.228	     0.517988
10.229	     0.521721
10.230	     0.525458
10.231	     0.529200
10.232	     0.532945
10.233	     0.536690
10.234	     0.540436
10.235	     0.544181
10.236	     0.547925
10.237	     0.551672
10.238	     0.555424
10.239	     0.559178
10.240	     0.562933
10.241	     0.566689
10.242	     0.570443
10.243	     0.574195
10.244	     0.577944
10.245	     0.581689
10.246	     0.585427
10.247	     0.589164
10.248	     0.592902
10.249	     0.596638
10.250	     0.600372
10.251	     0.604103
10.252	     0.607829
10.253	     0.611549
10.254	     0.615263
10.255	     0.618968
10.256	     0.622663
10.257	     0.626349
10.258	     0.630031
10.259	     0.633707
10.260	     0.637377
10.261	     0.641041
10.262	     0.644696
10.263	     0.648343
10.264	     0.651979
10.265	     0.655605
10.266	     0.659218
10.267	     0.662819
10.268	     0.666410
10.269	     0.669993
10.270	     0.673568
10.271	     0.677133
10.272	     0.680687
10.273	     0.684229
10.274	     0.687758
10.275	     0.691272
10.276	     0.694771
10.277	     0.698254
10.278	     0.701719
10.279	     0.705172
10.280	     0.708612
10.281	     0.712038
10.282	     0.715450
10.283	     0.718847
10.284	     0.722229
10.285	     0.725594
10.286	     0.728942
10.287	     0.732272
10.288	     0.735584
10.289	     0.738879
10.290	     0.742160
10.291	     0.745425
10.292	     0.748674
10.293	     0.751906
10.294	     0.755121
10.295	     0.758316
10.296	     0.761492
10.297	     0.764647
10.298	     0.767782
10.299	     0.770894
10.300	     0.773987
10.301	     0.777062
10.302	     0.780117
10.303	     0.783153
10.304	     0.786169
10.305	     0.789165
10.306	     0.792140
10.307	     0.795093
10.308	     0.798025
10.309	     0.800934
10.310	     0.803823
10.311	     0.806691
10.312	     0.809540
10.313	     0.812369
10.314	     0.815176
10.315	     0.817961
10.316	     0.820724
10.317	     0.823463
10.318	     0.826179
10.319	     0.828870
10.320	     0.831536
10.321	     0.834177
10.322	     0.836796
10.323	     0.839391
10.324	     0.841964
10.325	     0.844512
10.326	     0.847037
10.327	     0.849539
10.328	     0.852016
10.329	     0.854469
10.330	     0.856898
10.331	     0.859303
10.332	     0.861685
10.333	     0.864043
10.334	     0.866377
10.335	     0.868688
10.336	     0.870975
10.337	     0.873237
10.338	     0.875476
10.339	     0.877689
10.340	     0.879878
10.341	     0.882042
10.342	     0.884180
10.343	     0.886294
10.344	     0.888383
10.345	     0.890447
10.346	     0.892487
10.347	     0.894502
10.348	     0.896494
10.349	     0.898462
10.350	     0.900406
10.351	     0.902327
10.352	     0.904226
10.353	     0.906101
10.354	     0.907952
10.355	     0.909779
10.356	     0.911583
10.357	     0.913363
10.358	     0.915120
10.359	     0.916854
10.360	     0.918565
10.361	     0.920253
10.362	     0.921918
10.363	     0.923559
10.364	     0.925177
10.365	     0.926771
10.366	     0.928342
10.367	     0.929889
10.368	     0.931414
10.369	     0.932916
10.370	     0.934396
10.371	     0.935855
10.372	     0.937293
10.373	     0.938711
10.374	     0.940107
10.375	     0.941482
10.376	     0.942834
10.377	     0.944164
10.378	     0.945472
10.379	     0.946760
10.380	     0.948027
10.381	     0.949275
10.382	     0.950502
10.383	     0.951711
10.384	     0.952901
10.385	     0.954071
10.386	     0.955221
10.387	     0.956350
10.388	     0.957458
10.389	     0.958547
10.390	     0.959617
10.391	     0.960669
10.392	     0.961703
10.393	     0.962720
10.394	     0.963720
10.395	     0.964704
10.396	     0.965671
10.397	     0.966620
10.398	     0.967549
10.399	     0.968461
10.400	     0.969356
10.401	     0.970234
10.402	     0.971096
10.403	     0.971943
10.404	     0.972774
10.405	     0.973591
10.406	     0.974393
10.407	     0.975180
10.408	     0.975951
10.409	     0.976705
10.410	     0.977443
10.411	     0.978167
10.412	     0.978876
10.413	     0.979570
10.414	     0.980251
10.415	     0.980918
10.416	     0.981572
10.417	     0.982214
10.418	     0.982841
10.419	     0.983453
10.420	     0.984051
10.421	     0.984635
10.422	     0.985206
10.423	     0.985763
10.424	     0.986308
10.425	     0.986841
10.426	     0.987363
10.427	     0.987873
10.428	     0.988372
10.429	     0.988859
10.430	     0.989332
10.431	     0.989794
10.432	     0.990243
10.433	     0.990681
10.434	     0.991107
10.435	     0.991521
10.436	     0.991925
10.437	     0.992317
10.438	     0.992699
10.439	     0.993070
10.440	     0.993429
10.441	     0.993776
10.442	     0.994111
10.443	     0.994435
10.444	     0.994748
10.445	     0.995051
10.446	     0.995344
10.447	     0.995628
10.448	     0.995902
10.449	     0.996167
10.450	     0.996423
10.451	     0.996669
10.452	     0.996905
10.453	     0.997131
10.454	     0.997348
10.455	     0.997554
10.456	     0.997752
10.457	     0.997940
10.458	     0.998120
10.459	     0.998291
10.460	     0.998454
10.461	     0.998607
10.462	     0.998750
10.463	     0.998884
10.464	     0.999008
10.465	     0.999123
10.466	     0.999230
10.467	     0.999329
10.468	     0.999421
10.469	     0.999505
10.470	     0.999584
10.471	     0.999656
10.472	     0.999723
10.473	     0.999781
10.474	     0.999833
10.475	     0.999877
10.476	     0.999914
10.477	     0.999944
10.478	     0.999968
10.479	     0.999985
10.480	     0.999995
10.481	     1.000000
10.482	     0.999999
10.483	     0.999991
10.484	     0.999975
10.485	     0.999952
10.486	     0.999923
10.487	     0.999887
10.488	     0.999846
10.489	     0.999798
10.490	     0.999746
10.491	     0.999690
10.492	     0.999629
10.493	     0.999564
10.494	     0.999496
10.495	     0.999422
10.496	     0.999344
10.497	     0.999261
10.498	     0.999173
10.499	     0.999080
10.500	     0.998983
10.501	     0.998881
10.502	     0.998774
10.503	     0.998664
10.504	     0.998548
10.505	     0.998428
10.506	     0.998302
10.507	     0.998171
10.508	     0.998035
10.509	     0.997894
10.510	     0.997749
10.511	     0.997601
10.512	     0.997449
10.513	     0.997294
10.514	     0.997137
10.515	     0.996977
10.516	     0.996815
10.517	     0.996650
10.518	     0.996482
10.519	     0.996310
10.520	     0.996135
10.521	     0.995957
10.522	     0.995776
10.523	     0.995592
10.524	     0.995406
10.525	     0.995217
10.526	     0.995025
10.527	     0.994830
10.528	     0.994632
10.529	     0.994430
10.530	     0.994225
10.531	     0.994017
10.532	     0.993807
10.533	     0.993594
10.534	     0.993380
10.535	     0.993164
10.536	     0.992947
10.537	     0.992729
10.538	     0.992510
10.539	     0.992290
10.540	     0.992068
10.541	     0.991844
10.542	     0.991619
10.543	     0.991392
10.544	     0.991163
10.545	     0.990933
10.546	     0.990701
10.547	     0.990468
10.548	     0.990233
10.549	     0.989997
10.550	     0.989758
10.551	     0.989517
10.552	     0.989275
10.553	     0.989030
10.554	     0.988785
10.555	     0.988538
10.556	     0.988290
10.557	     0.988042
10.558	     0.987793
10.559	     0.987545
10.560	     0.987296
10.561	     0.987046
10.562	     0.986795
10.563	     0.986544
10.564	     0.986292
10.565	     0.986039
10.566	     0.985786
10.567	     0.985532
10.568	     0.985278
10.569	     0.985024
10.570	     0.984770
10.571	     0.984516
10.572	     0.984262
10.573	     0.984007
10.574	     0.983751
10.575	     0.983495
10.576	     0.983240
10.577	     0.982984
10.578	     0.982728
10.579	     0.982472
10.580	     0.982217
10.581	     0.981963
10.582	     0.981710
10.583	     0.981457
10.584	     0.981205
10.585	     0.980953
10.586	     0.980702
10.587	     0.980451
10.588	     0.980201
10.589	     0.979951
10.590	     0.979700
10.591	     0.979450
10.592	     0.979200
10.593	     0.978950
10.594	     0.978699
10.595	     0.978449
10.596	     0.978199
10.597	     0.977949
10.598	     0.977699
10.599	     0.977449
10.600	     0.977199
10.601	     0.976949
10.602	     0.976699
10.603	     0.976448
10.604	     0.976198
10.605	     0.975946
10.606	     0.975695
10.607	     0.975443
10.608	     0.975192
10.609	     0.974940
10.610	     0.974688
10.611	     0.974435
10.612	     0.974183
10.613	     0.973929
10.614	     0.973676
10.615	     0.973422
10.616	     0.973167
10.617	     0.972912
10.618	     0.972657
10.619	     0.972401
10.620	     0.972144
10.621	     0.971888
10.622	     0.971631
10.623	     0.971373
10.624	     0.971115
10.625	     0.970857
10.626	     0.970598
10.627	     0.970340
10.628	     0.970080
10.629	     0.969821
10.630	     0.969561
10.631	     0.969301
10.632	     0.969040
10.633	     0.968779
10.634	     0.968517
10.635	     0.968255
10.636	     0.967993
10.637	     0.967730
10.638	     0.967466
10.639	     0.967201
10.640	     0.966936
10.641	     0.966671
10.642	     0.966404
10.643	     0.966138
10.644	     0.965871
10.645	     0.965603
10.646	     0.965335
10.647	     0.965066
10.648	     0.964797
10.649	     0.964527
10.650	     0.964257
10.651	     0.963986
10.652	     0.963714
10.653	     0.963441
10.654	     0.963167
10.655	     0.962893
10.656	     0.962619
10.657	     0.962345
10.658	     0.962072
10.659	     0.961799
10.660	     0.961526
10.661	     0.961254
10.662	     0.960982
10.663	     0.960710
10.664	     0.960436
10.665	     0.960163
10.666	     0.959890
10.667	     0.959618
10.668	     0.959347
10.669	     0.959078
10.670	     0.958811
10.671	     0.958547
10.672	     0.958286
10.673	     0.958028
10.674	     0.957770
10.675	     0.957512
10.676	     0.957256
10.677	     0.957002
10.678	     0.956750
10.679	     0.956502
10.680	     0.956257
10.681	     0.956016
10.682	     0.955781
10.683	     0.955551
10.684	     0.955327
10.685	     0.955106
10.686	     0.954889
10.687	     0.954674
10.688	     0.954464
10.689	     0.954259
10.690	     0.954058
10.691	     0.953863
10.692	     0.953674
10.693	     0.953492
10.694	     0.953317
10.695	     0.953149
10.696	     0.952989
10.697	     0.952835
10.698	     0.952686
10.699	     0.952543
10.700	     0.952407
10.701	     0.952277
10.702	     0.952154
10.703	     0.952038
10.704	     0.951929
10.705	     0.951827
10.706	     0.951733
10.707	     0.951647
10.708	     0.951568
10.709	     0.951497
10.710	     0.951433
10.711	     0.951376
10.712	     0.951326
10.713	     0.951283
10.714	     0.951247
10.715	     0.951216
10.716	     0.951192
10.717	     0.951174
10.718	     0.951161
10.719	     0.951155
10.720	     0.951156
10.721	     0.951165
10.722	     0.951180
10.723	     0.951202
10.724	     0.951229
10.725	     0.951261
10.726	     0.951298
10.727	     0.951339
10.728	     0.951384
10.729	     0.951431
10.730	     0.951481
10.731	     0.951537
10.732	     0.951598
10.733	     0.951664
10.734	     0.951735
10.735	     0.951809
10.736	     0.951887
10.737	     0.951967
10.738	     0.952050
10.739	     0.952134
10.740	     0.952220
10.741	     0.952306
10.742	     0.952394
10.743	     0.952485
10.744	     0.952578
10.745	     0.952674
10.746	     0.952773
10.747	     0.952872
10.748	     0.952974
10.749	     0.953076
10.750	     0.953179
10.751	     0.953282
10.752	     0.953385
10.753	     0.953487
10.754	     0.953590
10.755	     0.953694
10.756	     0.953800
10.757	     0.953905
10.758	     0.954012
10.759	     0.954118
10.760	     0.954226
10.761	     0.954333
10.762	     0.954440
10.763	     0.954547
10.764	     0.954653
10.765	     0.954760
10.766	     0.954867
10.767	     0.954973
10.768	     0.955081
10.769	     0.955188
10.770	     0.955295
10.771	     0.955402
10.772	     0.955509
10.773	     0.955615
10.774	     0.955722
10.775	     0.955827
10.776	     0.955932
10.777	     0.956037
10.778	     0.956141
10.779	     0.956246
10.780	     0.956350
10.781	     0.956454
10.782	     0.956558
10.783	     0.956660
10.784	     0.956763
10.785	     0.956864
10.786	     0.956965
10.787	     0.957065
10.788	     0.957163
10.789	     0.957262
10.790	     0.957360
10.791	     0.957458
10.792	     0.957554
10.793	     0.957650
10.794	     0.957746
10.795	     0.957840
10.796	     0.957933
10.797	     0.958024
10.798	     0.958115
10.799	     0.958203
10.800	     0.958291
10.801	     0.958377
10.802	     0.958462
10.803	     0.958546
10.804	     0.958629
10.805	     0.958710
10.806	     0.958791
10.807	     0.958869
10.808	     0.958947
10.809	     0.959023
10.810	     0.959097
10.811	     0.959170
10.812	     0.959241
10.813	     0.959311
10.814	     0.959380
10.815	     0.959447
10.816	     0.959513
10.817	     0.959578
10.818	     0.959640
10.819	     0.959701
10.820	     0.959761
10.821	     0.959818
10.822	     0.959874
10.823	     0.959928
10.824	     0.959980
10.825	     0.960031
10.826	     0.960080
10.827	     0.960127
10.828	     0.960173
10.829	     0.960217
10.830	     0.960259
10.831	     0.960298
10.832	     0.960336
10.833	     0.960371
10.834	     0.960404
10.835	     0.960435
10.836	     0.960464
10.837	     0.960491
10.838	     0.960517
10.839	     0.960540
10.840	     0.960561
10.841	     0.960580
10.842	     0.960596
10.843	     0.960610
10.844	     0.960620
10.845	     0.960629
10.846	     0.960634
10.847	     0.960636
10.848	     0.960636
10.849	     0.960633
10.850	     0.960627
10.851	     0.960619
10.852	     0.960608
10.853	     0.960595
10.854	     0.960579
10.855	     0.960561
10.856	     0.960540
10.857	     0.960517
10.858	     0.960491
10.859	     0.960463
10.860	     0.960431
10.861	     0.960396
10.862	     0.960358
10.863	     0.960319
10.864	     0.960277
10.865	     0.960233
10.866	     0.960188
10.867	     0.960141
10.868	     0.960094
10.869	     0.960046
10.870	     0.959998
10.871	     0.959946
10.872	     0.959893
10.873	     0.959837
10.874	     0.959780
10.875	     0.959722
10.876	     0.959663
10.877	     0.959604
10.878	     0.959546
10.879	     0.959489
10.880	     0.959433
10.881	     0.959379
10.882	     0.959327
10.883	     0.959274
10.884	     0.959221
10.885	     0.959168
10.886	     0.959116
10.887	     0.959065
10.888	     0.959015
10.889	     0.958967
10.890	     0.958921
10.891	     0.958878
10.892	     0.958838
10.893	     0.958802
10.894	     0.958769
10.895	     0.958738
10.896	     0.958710
10.897	     0.958684
10.898	     0.958660
10.899	     0.958639
10.900	     0.958620
10.901	     0.958604
10.902	     0.958591
10.903	     0.958580
10.904	     0.958573
10.905	     0.958568
10.906	     0.958567
10.907	     0.958570
10.908	     0.958576
10.909	     0.958585
10.910	     0.958597
10.911	     0.958611
10.912	     0.958628
10.913	     0.958646
10.914	     0.958667
10.915	     0.958688
10.916	     0.958711
10.917	     0.958735
10.918	     0.958762
10.919	     0.958791
10.920	     0.958823
10.921	     0.958857
10.922	     0.958893
10.923	     0.958930
10.924	     0.958968
10.925	     0.959007
10.926	     0.959045
10.927	     0.959082
10.928	     0.959118
10.929	     0.959152
10.930	     0.959186
10.931	     0.959221
10.932	     0.959257
10.933	     0.959293
10.934	     0.959328
10.935	     0.959363
10.936	     0.959397
10.937	     0.959429
10.938	     0.959459
10.939	     0.959487
10.940	     0.959511
10.941	     0.959532
10.942	     0.959551
10.943	     0.959568
10.944	     0.959584
10.945	     0.959598
10.946	     0.959610
10.947	     0.959620
10.948	     0.959627
10.949	     0.959631
10.950	     0.959632
10.951	     0.959630
10.952	     0.959623
10.953	     0.959613
10.954	     0.959600
10.955	     0.959583
10.956	     0.959563
10.957	     0.959539
10.958	     0.959513
10.959	     0.959484
10.960	     0.959451
10.961	     0.959416
10.962	     0.959377
10.963	     0.959336
10.964	     0.959291
10.965	     0.959244
10.966	     0.959193
10.967	     0.959139
10.968	     0.959081
10.969	     0.959020
10.970	     0.958956
10.971	     0.958889
10.972	     0.958819
10.973	     0.958748
10.974	     0.958674
10.975	     0.958598
10.976	     0.958521
10.977	     0.958442
10.978	     0.958361
10.979	     0.958277
10.980	     0.958190
10.981	     0.958101
10.982	     0.958010
10.983	     0.957917
10.984	     0.957823
10.985	     0.957727
10.986	     0.957630
10.987	     0.957533
10.988	     0.957434
10.989	     0.957336
10.990	     0.957236
10.991	     0.957135
10.992	     0.957033
10.993	     0.956929
10.994	     0.956824
10.995	     0.956718
10.996	     0.956612
10.997	     0.956505
10.998	     0.956397
10.999	     0.956290
11.000	     0.956182
11.001	     0.956074
11.002	     0.955966
11.003	     0.955858
11.004	     0.955748
11.005	     0.955639
11.006	     0.955529
11.007	     0.955419
11.008	     0.955308
11.009	     0.955197
11.010	     0.955086
11.011	     0.954975
11.012	     0.954863
11.013	     0.954752
11.014	     0.954640
11.015	     0.954529
11.016	     0.954417
11.017	     0.954305
11.018	     0.954193
11.019	     0.954081
11.020	     0.953968
11.021	     0.953856
11.022	     0.953743
11.023	     0.953630
11.024	     0.953516
11.025	     0.953402
11.026	     0.953288
11.027	     0.953174
11.028	     0.953060
11.029	     0.952946
11.030	     0.952831
11.031	     0.952716
11.032	     0.952601
11.033	     0.952485
11.034	     0.952369
11.035	     0.952253
11.036	     0.952136
11.037	     0.952019
11.038	     0.951901
11.039	     0.951783
11.040	     0.951664
11.041	     0.951545
11.042	     0.951426
11.043	     0.951306
11.044	     0.951186
11.045	     0.951066
11.046	     0.950945
11.047	     0.950824
11.048	     0.950702
11.049	     0.950580
11.050	     0.950458
11.051	     0.950335
11.052	     0.950212
11.053	     0.950088
11.054	     0.949964
11.055	     0.949839
11.056	     0.949714
11.057	     0.949589
11.058	     0.949464
11.059	     0.949339
11.060	     0.949215
11.061	     0.949091
11.062	     0.948967
11.063	     0.948843
11.064	     0.948719
11.065	     0.948594
11.066	     0.948470
11.067	     0.948345
11.068	     0.948221
11.069	     0.948098
11.070	     0.947975
11.071	     0.947853
11.072	     0.947732
11.073	     0.947612
11.074	     0.947494
11.075	     0.947377
11.076	     0.947261
11.077	     0.947145
11.078	     0.947029
11.079	     0.946915
11.080	     0.946801
11.081	     0.946689
11.082	     0.946579
11.083	     0.946470
11.084	     0.946363
11.085	     0.946258
11.086	     0.946156
11.087	     0.946056
11.088	     0.945957
11.089	     0.945860
11.090	     0.945765
11.091	     0.945671
11.092	     0.945580
11.093	     0.945490
11.094	     0.945403
11.095	     0.945317
11.096	     0.945234
11.097	     0.945153
11.098	     0.945075
11.099	     0.945000
11.100	     0.944927
11.101	     0.944857
11.102	     0.944788
11.103	     0.944723
11.104	     0.944659
11.105	     0.944598
11.106	     0.944539
11.107	     0.944482
11.108	     0.944427
11.109	     0.944374
11.110	     0.944324
11.111	     0.944276
11.112	     0.944230
11.113	     0.944186
11.114	     0.944145
11.115	     0.944107
11.116	     0.944070
11.117	     0.944036
11.118	     0.944004
11.119	     0.943973
11.120	     0.943944
11.121	     0.943917
11.122	     0.943891
11.123	     0.943866
11.124	     0.943842
11.125	     0.943821
11.126	     0.943801
11.127	     0.943783
11.128	     0.943767
11.129	     0.943753
11.130	     0.943740
11.131	     0.943728
11.132	     0.943717
11.133	     0.943707
11.134	     0.943697
11.135	     0.943688
11.136	     0.943680
11.137	     0.943672
11.138	     0.943666
11.139	     0.943660
11.140	     0.943656
11.141	     0.943653
11.142	     0.943650
11.143	     0.943648
11.144	     0.943647
11.145	     0.943646
11.146	     0.943645
11.147	     0.943645
11.148	     0.943645
11.149	     0.943645
11.150	     0.943646
11.151	     0.943647
11.152	     0.943648
11.153	     0.943650
11.154	     0.943653
11.155	     0.943656
11.156	     0.943659
11.157	     0.943663
11.158	     0.943668
11.159	     0.943673
11.160	     0.943678
11.161	     0.943684
11.162	     0.943690
11.163	     0.943697
11.164	     0.943704
11.165	     0.943712
11.166	     0.943720
11.167	     0.943729
11.168	     0.943738
11.169	     0.943748
11.170	     0.943758
11.171	     0.943769
11.172	     0.943781
11.173	     0.943794
11.174	     0.943807
11.175	     0.943821
11.176	     0.943835
11.177	     0.943850
11.178	     0.943866
11.179	     0.943882
11.180	     0.943899
11.181	     0.943917
11.182	     0.943935
11.183	     0.943955
11.184	     0.943975
11.185	     0.943996
11.186	     0.944017
11.187	     0.944040
11.188	     0.944063
11.189	     0.944088
11.190	     0.944113
11.191	     0.944138
11.192	     0.944165
11.193	     0.944192
11.194	     0.944220
11.195	     0.944248
11.196	     0.944278
11.197	     0.944307
11.198	     0.944337
11.199	     0.944368
11.200	     0.944400
11.201	     0.944432
11.202	     0.944465
11.203	     0.944499
11.204	     0.944533
11.205	     0.944568
11.206	     0.944604
11.207	     0.944639
11.208	     0.944676
11.209	     0.944712
11.210	     0.944749
11.211	     0.944787
11.212	     0.944825
11.213	     0.944863
11.214	     0.944902
11.215	     0.944942
11.216	     0.944982
11.217	     0.945022
11.218	     0.945063
11.219	     0.945104
11.220	     0.945145
11.221	     0.945186
11.222	     0.945228
11.223	     0.945270
11.224	     0.945312
11.225	     0.945354
11.226	     0.945397
11.227	     0.945440
11.228	     0.945484
11.229	     0.945527
11.230	     0.945571
11.231	     0.945615
11.232	     0.945659
11.233	     0.945703
11.234	     0.945747
11.235	     0.945791
11.236	     0.945834
11.237	     0.945878
11.238	     0.945921
11.239	     0.945965
11.240	     0.946009
11.241	     0.946053
11.242	     0.946096
11.243	     0.946140
11.244	     0.946184
11.245	     0.946227
11.246	     0.946271
11.247	     0.946314
11.248	     0.946358
11.249	     0.946401
11.250	     0.946444
11.251	     0.946487
11.252	     0.946531
11.253	     0.946574
11.254	     0.946617
11.255	     0.946660
11.256	     0.946703
11.257	     0.946746
11.258	     0.946788
11.259	     0.946831
11.260	     0.946873
11.261	     0.946915
11.262	     0.946956
11.263	     0.946997
11.264	     0.947038
11.265	     0.947079
11.266	     0.947120
11.267	     0.947160
11.268	     0.947200
11.269	     0.947240
11.270	     0.947280
11.271	     0.947320
11.272	     0.947360
11.273	     0.947399
11.274	     0.947439
11.275	     0.947478
11.276	     0.947517
11.277	     0.947557
11.278	     0.947596
11.279	     0.947635
11.280	     0.947674
11.281	     0.947713
11.282	     0.947751
11.283	     0.947789
11.284	     0.947827
11.285	     0.947864
11.286	     0.947901
11.287	     0.947938
11.288	     0.947974
11.289	     0.948010
11.290	     0.948045
11.291	     0.948080
11.292	     0.948115
11.293	     0.948150
11.294	     0.948184
11.295	     0.948218
11.296	     0.948251
11.297	     0.948285
11.298	     0.948317
11.299	     0.948350
11.300	     0.948382
11.301	     0.948414
11.302	     0.948445
11.303	     0.948477
11.304	     0.948507
11.305	     0.948538
11.306	     0.948568
11.307	     0.948598
11.308	     0.948627
11.309	     0.948656
11.310	     0.948685
11.311	     0.948713
11.312	     0.948740
11.313	     0.948768
11.314	     0.948794
11.315	     0.948820
11.316	     0.948845
11.317	     0.948870
11.318	     0.948895
11.319	     0.948919
11.320	     0.948943
11.321	     0.948967
11.322	     0.948991
11.323	     0.949014
11.324	     0.949037
11.325	     0.949061
11.326	     0.949084
11.327	     0.949107
11.328	     0.949130
11.329	     0.949152
11.330	     0.949174
11.331	     0.949196
11.332	     0.949218
11.333	     0.949240
11.334	     0.949262
11.335	     0.949284
11.336	     0.949306
11.337	     0.949328
11.338	     0.949350
11.339	     0.949372
11.340	     0.949394
11.341	     0.949416
11.342	     0.949438
11.343	     0.949460
11.344	     0.949483
11.345	     0.949505
11.346	     0.949527
11.347	     0.949549
11.348	     0.949571
11.349	     0.949593
11.350	     0.949615
11.351	     0.949636
11.352	     0.949659
11.353	     0.949682
11.354	     0.949705
11.355	     0.949728
11.356	     0.949752
11.357	     0.949775
11.358	     0.949797
11.359	     0.949819
11.360	     0.949841
11.361	     0.949861
11.362	     0.949880
11.363	     0.949898
11.364	     0.949914
11.365	     0.949930
11.366	     0.949947
11.367	     0.949963
11.368	     0.949979
11.369	     0.949994
11.370	     0.950008
11.371	     0.950020
11.372	     0.950030
11.373	     0.950038
11.374	     0.950043
11.375	     0.950045
11.376	     0.950043
11.377	     0.950038
11.378	     0.950031
11.379	     0.950024
11.380	     0.950016
11.381	     0.950005
11.382	     0.949992
11.383	     0.949975
11.384	     0.949955
11.385	     0.949931
11.386	     0.949902
11.387	     0.949868
11.388	     0.949828
11.389	     0.949781
11.390	     0.949728
11.391	     0.949672
11.392	     0.949612
11.393	     0.949549
11.394	     0.949481
11.395	     0.949408
11.396	     0.949330
11.397	     0.949246
11.398	     0.949155
11.399	     0.949058
11.400	     0.948952
11.401	     0.948839
11.402	     0.948717
11.403	     0.948586
11.404	     0.948449
11.405	     0.948307
11.406	     0.948158
11.407	     0.948003
11.408	     0.947841
11.409	     0.947670
11.410	     0.947492
11.411	     0.947305
11.412	     0.947109
11.413	     0.946904
11.414	     0.946689
11.415	     0.946463
11.416	     0.946226
11.417	     0.945981
11.418	     0.945728
11.419	     0.945466
11.420	     0.945195
11.421	     0.944915
11.422	     0.944625
11.423	     0.944326
11.424	     0.944018
11.425	     0.943699
11.426	     0.943370
11.427	     0.943030
11.428	     0.942680
11.429	     0.942319
11.430	     0.941948
11.431	     0.941566
11.432	     0.941174
11.433	     0.940771
11.434	     0.940359
11.435	     0.939937
11.436	     0.939505
11.437	     0.939063
11.438	     0.938612
11.439	     0.938152
11.440	     0.937682
11.441	     0.937204
11.442	     0.936716
11.443	     0.936217
11.444	     0.935706
11.445	     0.935184
11.446	     0.934652
11.447	     0.934111
11.448	     0.933561
11.449	     0.933004
11.450	     0.932439
11.451	     0.931867
11.452	     0.931290
11.453	     0.930708
11.454	     0.930121
11.455	     0.929530
11.456	     0.928931
11.457	     0.928321
11.458	     0.927703
11.459	     0.927076
11.460	     0.926444
11.461	     0.925806
11.462	     0.925165
11.463	     0.924521
11.464	     0.923876
11.465	     0.923231
11.466	     0.922587
11.467	     0.921946
11.468	     0.921309
11.469	     0.920670
11.470	     0.920025
11.471	     0.919375
11.472	     0.918723
11.473	     0.918070
11.474	     0.917418
11.475	     0.916768
11.476	     0.916122
11.477	     0.915481
11.478	     0.914848
11.479	     0.914223
11.480	     0.913609
11.481	     0.913007
11.482	     0.912412
11.483	     0.911819
11.484	     0.911229
11.485	     0.910644
11.486	     0.910064
11.487	     0.909492
11.488	     0.908928
11.489	     0.908375
11.490	     0.907834
11.491	     0.907306
11.492	     0.906793
11.493	     0.906297
11.494	     0.905818
11.495	     0.905356
11.496	     0.904904
11.497	     0.904462
11.498	     0.904033
11.499	     0.903615
11.500	     0.903212
11.501	     0.902822
11.502	     0.902448
11.503	     0.902089
11.504	     0.901747
11.505	     0.901423
11.506	     0.901117
11.507	     0.900831
11.508	     0.900564
11.509	     0.900314
11.510	     0.900081
11.511	     0.899865
11.512	     0.899665
11.513	     0.899482
11.514	     0.899316
11.515	     0.899167
11.516	     0.899034
11.517	     0.898918
11.518	     0.898820
11.519	     0.898738
11.520	     0.898673
11.521	     0.898625
11.522	     0.898596
11.523	     0.898585
11.524	     0.898593
11.525	     0.898618
11.526	     0.898660
11.527	     0.898718
11.528	     0.898792
11.529	     0.898881
11.530	     0.898985
11.531	     0.899101
11.532	     0.899231
11.533	     0.899374
11.534	     0.899528
11.535	     0.899696
11.536	     0.899881
11.537	     0.900082
11.538	     0.900298
11.539	     0.900527
11.540	     0.900771
11.541	     0.901027
11.542	     0.901295
11.543	     0.901574
11.544	     0.901864
11.545	     0.902163
11.546	     0.902471
11.547	     0.902787
11.548	     0.903111
11.549	     0.903448
11.550	     0.903797
11.551	     0.904158
11.552	     0.904529
11.553	     0.904911
11.554	     0.905302
11.555	     0.905702
11.556	     0.906111
11.557	     0.906528
11.558	     0.906951
11.559	     0.907382
11.560	     0.907818
11.561	     0.908260
11.562	     0.908710
11.563	     0.909169
11.564	     0.909637
11.565	     0.910113
11.566	     0.910596
11.567	     0.911087
11.568	     0.911585
11.569	     0.912089
11.570	     0.912599
11.571	     0.913114
11.572	     0.913635
11.573	     0.914160
11.574	     0.914689
11.575	     0.915224
11.576	     0.915766
11.577	     0.916315
11.578	     0.916871
11.579	     0.917432
11.580	     0.917999
11.581	     0.918571
11.582	     0.919147
11.583	     0.919727
11.584	     0.920311
11.585	     0.920897
11.586	     0.921486
11.587	     0.922077
11.588	     0.922670
11.589	     0.923269
11.590	     0.923872
11.591	     0.924481
11.592	     0.925094
11.593	     0.925710
11.594	     0.926329
11.595	     0.926949
11.596	     0.927572
11.597	     0.928194
11.598	     0.928817
11.599	     0.929439
11.600	     0.930060
11.601	     0.930679
11.602	     0.931299
11.603	     0.931921
11.604	     0.932546
11.605	     0.933173
11.606	     0.933800
11.607	     0.934427
11.608	     0.935053
11.609	     0.935678
11.610	     0.936300
11.611	     0.936919
11.612	     0.937535
11.613	     0.938145
11.614	     0.938750
11.615	     0.939351
11.616	     0.939950
11.617	     0.940549
11.618	     0.941146
11.619	     0.941740
11.620	     0.942332
11.621	     0.942919
11.622	     0.943502
11.623	     0.944080
11.624	     0.944652
11.625	     0.945217
11.626	     0.945774
11.627	     0.946324
11.628	     0.946864
11.629	     0.947398
11.630	     0.947927
11.631	     0.948452
11.632	     0.948971
11.633	     0.949483
11.634	     0.949989
11.635	     0.950488
11.636	     0.950980
11.637	     0.951463
11.638	     0.951938
11.639	     0.952404
11.640	     0.952860
11.641	     0.953306
11.642	     0.953742
11.643	     0.954170
11.644	     0.954591
11.645	     0.955003
11.646	     0.955407
11.647	     0.955802
11.648	     0.956189
11.649	     0.956567
11.650	     0.956936
11.651	     0.957295
11.652	     0.957645
11.653	     0.957985
11.654	     0.958316
11.655	     0.958636
11.656	     0.958947
11.657	     0.959247
11.658	     0.959538
11.659	     0.959819
11.660	     0.960091
11.661	     0.960354
11.662	     0.960607
11.663	     0.960852
11.664	     0.961087
11.665	     0.961314
11.666	     0.961533
11.667	     0.961743
11.668	     0.961945
11.669	     0.962139
11.670	     0.962323
11.671	     0.962497
11.672	     0.962661
11.673	     0.962817
11.674	     0.962963
11.675	     0.963102
11.676	     0.963233
11.677	     0.963356
11.678	     0.963472
11.679	     0.963581
11.680	     0.963684
11.681	     0.963781
11.682	     0.963872
11.683	     0.963957
11.684	     0.964034
11.685	     0.964101
11.686	     0.964161
11.687	     0.964214
11.688	     0.964260
11.689	     0.964300
11.690	     0.964334
11.691	     0.964363
11.692	     0.964388
11.693	     0.964409
11.694	     0.964427
11.695	     0.964442
11.696	     0.964455
11.697	     0.964464
11.698	     0.964466
11.699	     0.964463
11.700	     0.964454
11.701	     0.964441
11.702	     0.964424
11.703	     0.964404
11.704	     0.964382
11.705	     0.964357
11.706	     0.964331
11.707	     0.964304
11.708	     0.964277
11.709	     0.964251
11.710	     0.964224
11.711	     0.964196
11.712	     0.964164
11.713	     0.964130
11.714	     0.964094
11.715	     0.964056
11.716	     0.964018
11.717	     0.963979
11.718	     0.963940
11.719	     0.963902
11.720	     0.963864
11.721	     0.963828
11.722	     0.963794
11.723	     0.963763
11.724	     0.963734
11.725	     0.963705
11.726	     0.963677
11.727	     0.963649
11.728	     0.963622
11.729	     0.963595
11.730	     0.963570
11.731	     0.963546
11.732	     0.963524
11.733	     0.963503
11.734	     0.963484
11.735	     0.963467
11.736	     0.963453
11.737	     0.963441
11.738	     0.963432
11.739	     0.963424
11.740	     0.963419
11.741	     0.963415
11.742	     0.963413
11.743	     0.963413
11.744	     0.963415
11.745	     0.963418
11.746	     0.963423
11.747	     0.963430
11.748	     0.963438
11.749	     0.963447
11.750	     0.963457
11.751	     0.963469
11.752	     0.963483
11.753	     0.963499
11.754	     0.963517
11.755	     0.963537
11.756	     0.963559
11.757	     0.963582
11.758	     0.963606
11.759	     0.963631
11.760	     0.963656
11.761	     0.963682
11.762	     0.963708
11.763	     0.963733
11.764	     0.963758
11.765	     0.963782
11.766	     0.963807
11.767	     0.963833
11.768	     0.963860
11.769	     0.963887
11.770	     0.963915
11.771	     0.963943
11.772	     0.963970
11.773	     0.963997
11.774	     0.964024
11.775	     0.964049
11.776	     0.964074
11.777	     0.964096
11.778	     0.964117
11.779	     0.964137
11.780	     0.964156
11.781	     0.964174
11.782	     0.964193
11.783	     0.964211
11.784	     0.964227
11.785	     0.964243
11.786	     0.964257
11.787	     0.964270
11.788	     0.964281
11.789	     0.964289
11.790	     0.964296
11.791	     0.964299
11.792	     0.964300
11.793	     0.964298
11.794	     0.964295
11.795	     0.964290
11.796	     0.964283
11.797	     0.964275
11.798	     0.964264
11.799	     0.964251
11.800	     0.964236
11.801	     0.964218
11.802	     0.964197
11.803	     0.964174
11.804	     0.964147
11.805	     0.964117
11.806	     0.964083
11.807	     0.964046
11.808	     0.964007
11.809	     0.963965
11.810	     0.963921
11.811	     0.963875
11.812	     0.963826
11.813	     0.963773
11.814	     0.963717
11.815	     0.963658
11.816	     0.963594
11.817	     0.963526
11.818	     0.963455
11.819	     0.963378
11.820	     0.963297
11.821	     0.963210
11.822	     0.963121
11.823	     0.963028
11.824	     0.962931
11.825	     0.962830
11.826	     0.962726
11.827	     0.962617
11.828	     0.962504
11.829	     0.962386
11.830	     0.962264
11.831	     0.962136
11.832	     0.962004
11.833	     0.961867
11.834	     0.961724
11.835	     0.961576
11.836	     0.961423
11.837	     0.961266
11.838	     0.961104
11.839	     0.960938
11.840	     0.960766
11.841	     0.960590
11.842	     0.960409
11.843	     0.960223
11.844	     0.960032
11.845	     0.959836
11.846	     0.959635
11.847	     0.959428
11.848	     0.959217
11.849	     0.958999
11.850	     0.958776
11.851	     0.958547
11.852	     0.958312
11.853	     0.958072
11.854	     0.957827
11.855	     0.957578
11.856	     0.957323
11.857	     0.957065
11.858	     0.956802
11.859	     0.956535
11.860	     0.956265
11.861	     0.955992
11.862	     0.955715
11.863	     0.955435
11.864	     0.955150
11.865	     0.954859
11.866	     0.954563
11.867	     0.954263
11.868	     0.953959
11.869	     0.953651
11.870	     0.953341
11.871	     0.953028
11.872	     0.952713
11.873	     0.952396
11.874	     0.952079
11.875	     0.951761
11.876	     0.951443
11.877	     0.951125
11.878	     0.950803
11.879	     0.950478
11.880	     0.950149
11.881	     0.949818
11.882	     0.949486
11.883	     0.949152
11.884	     0.948818
11.885	     0.948484
11.886	     0.948152
11.887	     0.947821
11.888	     0.947492
11.889	     0.947166
11.890	     0.946844
11.891	     0.946526
11.892	     0.946208
11.893	     0.945890
11.894	     0.945572
11.895	     0.945255
11.896	     0.944939
11.897	     0.944626
11.898	     0.944315
11.899	     0.944007
11.900	     0.943702
11.901	     0.943401
11.902	     0.943105
11.903	     0.942814
11.904	     0.942528
11.905	     0.942249
11.906	     0.941973
11.907	     0.941701
11.908	     0.941432
11.909	     0.941168
11.910	     0.940907
11.911	     0.940650
11.912	     0.940397
11.913	     0.940149
11.914	     0.939905
11.915	     0.939667
11.916	     0.939433
11.917	     0.939204
11.918	     0.938981
11.919	     0.938763
11.920	     0.938551
11.921	     0.938345
11.922	     0.938145
11.923	     0.937950
11.924	     0.937759
11.925	     0.937574
11.926	     0.937393
11.927	     0.937216
11.928	     0.937043
11.929	     0.936874
11.930	     0.936708
11.931	     0.936545
11.932	     0.936385
11.933	     0.936227
11.934	     0.936073
11.935	     0.935925
11.936	     0.935781
11.937	     0.935642
11.938	     0.935507
11.939	     0.935376
11.940	     0.935247
11.941	     0.935121
11.942	     0.934996
11.943	     0.934873
11.944	     0.934751
11.945	     0.934629
11.946	     0.934507
11.947	     0.934384
11.948	     0.934261
11.949	     0.934140
11.950	     0.934022
11.951	     0.933906
11.952	     0.933791
11.953	     0.933678
11.954	     0.933565
11.955	     0.933453
11.956	     0.933339
11.957	     0.933225
11.958	     0.933110
11.959	     0.932992
11.960	     0.932873
11.961	     0.932750
11.962	     0.932624
11.963	     0.932497
11.964	     0.932369
11.965	     0.932240
11.966	     0.932110
11.967	     0.931979
11.968	     0.931847
11.969	     0.931712
11.970	     0.931576
11.971	     0.931438
11.972	     0.931297
11.973	     0.931154
11.974	     0.931007
11.975	     0.930858
11.976	     0.930706
11.977	     0.930550
11.978	     0.930392
11.979	     0.930231
11.980	     0.930067
11.981	     0.929901
11.982	     0.929733
11.983	     0.929562
11.984	     0.929389
11.985	     0.929214
11.986	     0.929036
11.987	     0.928857
11.988	     0.928675
11.989	     0.928491
11.990	     0.928305
11.991	     0.928117
11.992	     0.927926
11.993	     0.927733
11.994	     0.927537
11.995	     0.927338
11.996	     0.927138
11.997	     0.926935
11.998	     0.926730
11.999	     0.926524
12.000	     0.926316
12.001	     0.926107
12.002	     0.925896
12.003	     0.925685
12.004	     0.925472
12.005	     0.925259
12.006	     0.925044
12.007	     0.924827
12.008	     0.924609
12.009	     0.924388
12.010	     0.924167
12.011	     0.923944
12.012	     0.923719
12.013	     0.923494
12.014	     0.923268
12.015	     0.923041
12.016	     0.922813
12.017	     0.922585
12.018	     0.922357
12.019	     0.922128
12.020	     0.921899
12.021	     0.921669
12.022	     0.921438
12.023	     0.921205
12.024	     0.920973
12.025	     0.920739
12.026	     0.920505
12.027	     0.920270
12.028	     0.920035
12.029	     0.919799
12.030	     0.919563
12.031	     0.919328
12.032	     0.919092
12.033	     0.918856
12.034	     0.918620
12.035	     0.918384
12.036	     0.918147
12.037	     0.917910
12.038	     0.917672
12.039	     0.917434
12.040	     0.917196
12.041	     0.916957
12.042	     0.916719
12.043	     0.916481
12.044	     0.916243
12.045	     0.916006
12.046	     0.915769
12.047	     0.915533
12.048	     0.915297
12.049	     0.915062
12.050	     0.914827
12.051	     0.914592
12.052	     0.914357
12.053	     0.914123
12.054	     0.913888
12.055	     0.913654
12.056	     0.913421
12.057	     0.913188
12.058	     0.912956
12.059	     0.912725
12.060	     0.912495
12.061	     0.912266
12.062	     0.912038
12.063	     0.911812
12.064	     0.911586
12.065	     0.911361
12.066	     0.911137
12.067	     0.910913
12.068	     0.910690
12.069	     0.910468
12.070	     0.910247
12.071	     0.910027
12.072	     0.909808
12.073	     0.909590
12.074	     0.909374
12.075	     0.909159
12.076	     0.908946
12.077	     0.908734
12.078	     0.908523
12.079	     0.908314
12.080	     0.908106
12.081	     0.907899
12.082	     0.907694
12.083	     0.907490
12.084	     0.907287
12.085	     0.907085
12.086	     0.906884
12.087	     0.906686
12.088	     0.906488
12.089	     0.906292
12.090	     0.906097
12.091	     0.905904
12.092	     0.905712
12.093	     0.905522
12.094	     0.905333
12.095	     0.905145
12.096	     0.904959
12.097	     0.904774
12.098	     0.904591
12.099	     0.904408
12.100	     0.904228
12.101	     0.904049
12.102	     0.903871
12.103	     0.903695
12.104	     0.903520
12.105	     0.903348
12.106	     0.903176
12.107	     0.903007
12.108	     0.902839
12.109	     0.902672
12.110	     0.902507
12.111	     0.902344
12.112	     0.902182
12.113	     0.902022
12.114	     0.901863
12.115	     0.901705
12.116	     0.901550
12.117	     0.901395
12.118	     0.901243
12.119	     0.901092
12.120	     0.900942
12.121	     0.900794
12.122	     0.900647
12.123	     0.900502
12.124	     0.900358
12.125	     0.900216
12.126	     0.900074
12.127	     0.899935
12.128	     0.899797
12.129	     0.899661
12.130	     0.899526
12.131	     0.899393
12.132	     0.899262
12.133	     0.899133
12.134	     0.899006
12.135	     0.898880
12.136	     0.898757
12.137	     0.898636
12.138	     0.898516
12.139	     0.898398
12.140	     0.898282
12.141	     0.898168
12.142	     0.898056
12.143	     0.897945
12.144	     0.897836
12.145	     0.897729
12.146	     0.897624
12.147	     0.897521
12.148	     0.897420
12.149	     0.897320
12.150	     0.897223
12.151	     0.897127
12.152	     0.897033
12.153	     0.896940
12.154	     0.896849
12.155	     0.896760
12.156	     0.896673
12.157	     0.896587
12.158	     0.896504
12.159	     0.896422
12.160	     0.896343
12.161	     0.896266
12.162	     0.896191
12.163	     0.896119
12.164	     0.896050
12.165	     0.895983
12.166	     0.895919
12.167	     0.895857
12.168	     0.895797
12.169	     0.895740
12.170	     0.895686
12.171	     0.895634
12.172	     0.895584
12.173	     0.895536
12.174	     0.895490
12.175	     0.895447
12.176	     0.895406
12.177	     0.895367
12.178	     0.895331
12.179	     0.895296
12.180	     0.895264
12.181	     0.895233
12.182	     0.895204
12.183	     0.895177
12.184	     0.895152
12.185	     0.895129
12.186	     0.895108
12.187	     0.895090
12.188	     0.895074
12.189	     0.895060
12.190	     0.895049
12.191	     0.895041
12.192	     0.895035
12.193	     0.895033
12.194	     0.895034
12.195	     0.895038
12.196	     0.895045
12.197	     0.895055
12.198	     0.895069
12.199	     0.895085
12.200	     0.895104
12.201	     0.895126
12.202	     0.895151
12.203	     0.895178
12.204	     0.895208
12.205	     0.895240
12.206	     0.895274
12.207	     0.895311
12.208	     0.895349
12.209	     0.895390
12.210	     0.895432
12.211	     0.895477
12.212	     0.895523
12.213	     0.895572
12.214	     0.895624
12.215	     0.895677
12.216	     0.895733
12.217	     0.895791
12.218	     0.895851
12.219	     0.895914
12.220	     0.895978
12.221	     0.896045
12.222	     0.896115
12.223	     0.896186
12.224	     0.896260
12.225	     0.896336
12.226	     0.896415
12.227	     0.896498
12.228	     0.896585
12.229	     0.896675
12.230	     0.896767
12.231	     0.896862
12.232	     0.896958
12.233	     0.897056
12.234	     0.897155
12.235	     0.897254
12.236	     0.897353
12.237	     0.897452
12.238	     0.897551
12.239	     0.897648
12.240	     0.897743
12.241	     0.897839
12.242	     0.897936
12.243	     0.898033
12.244	     0.898131
12.245	     0.898230
12.246	     0.898329
12.247	     0.898427
12.248	     0.898525
12.249	     0.898623
12.250	     0.898719
12.251	     0.898815
12.252	     0.898909
12.253	     0.899002
12.254	     0.899093
12.255	     0.899181
12.256	     0.899270
12.257	     0.899360
12.258	     0.899450
12.259	     0.899541
12.260	     0.899631
12.261	     0.899720
12.262	     0.899807
12.263	     0.899892
12.264	     0.899974
12.265	     0.900053
12.266	     0.900127
12.267	     0.900197
12.268	     0.900261
12.269	     0.900320
12.270	     0.900372
12.271	     0.900420
12.272	     0.900465
12.273	     0.900507
12.274	     0.900545
12.275	     0.900580
12.276	     0.900610
12.277	     0.900636
12.278	     0.900658
12.279	     0.900675
12.280	     0.900686
12.281	     0.900692
12.282	     0.900692
12.283	     0.900686
12.284	     0.900674
12.285	     0.900654
12.286	     0.900630
12.287	     0.900604
12.288	     0.900575
12.289	     0.900541
12.290	     0.900503
12.291	     0.900459
12.292	     0.900409
12.293	     0.900352
12.294	     0.900288
12.295	     0.900215
12.296	     0.900132
12.297	     0.900040
12.298	     0.899937
12.299	     0.899822
12.300	     0.899696
12.301	     0.899559
12.302	     0.899415
12.303	     0.899264
12.304	     0.899105
12.305	     0.898938
12.306	     0.898762
12.307	     0.898575
12.308	     0.898379
12.309	     0.898171
12.310	     0.897952
12.311	     0.897720
12.312	     0.897476
12.313	     0.897219
12.314	     0.896947
12.315	     0.896661
12.316	     0.896361
12.317	     0.896054
12.318	     0.895737
12.319	     0.895411
12.320	     0.895073
12.321	     0.894724
12.322	     0.894362
12.323	     0.893985
12.324	     0.893594
12.325	     0.893187
12.326	     0.892763
12.327	     0.892320
12.328	     0.891859
12.329	     0.891377
12.330	     0.890875
12.331	     0.890352
12.332	     0.889814
12.333	     0.889261
12.334	     0.888693
12.335	     0.888108
12.336	     0.887507
12.337	     0.886888
12.338	     0.886250
12.339	     0.885593
12.340	     0.884917
12.341	     0.884219
12.342	     0.883501
12.343	     0.882760
12.344	     0.881996
12.345	     0.881208
12.346	     0.880397
12.347	     0.879566
12.348	     0.878718
12.349	     0.877850
12.350	     0.876964
12.351	     0.876056
12.352	     0.875128
12.353	     0.874177
12.354	     0.873204
12.355	     0.872207
12.356	     0.871185
12.357	     0.870138
12.358	     0.869066
12.359	     0.867966
12.360	     0.866838
12.361	     0.865683
12.362	     0.864501
12.363	     0.863296
12.364	     0.862068
12.365	     0.860815
12.366	     0.859537
12.367	     0.858235
12.368	     0.856907
12.369	     0.855554
12.370	     0.854174
12.371	     0.852767
12.372	     0.851334
12.373	     0.849873
12.374	     0.848384
12.375	     0.846866
12.376	     0.845320
12.377	     0.843746
12.378	     0.842146
12.379	     0.840521
12.380	     0.838869
12.381	     0.837190
12.382	     0.835485
12.383	     0.833752
12.384	     0.831992
12.385	     0.830204
12.386	     0.828388
12.387	     0.826543
12.388	     0.824670
12.389	     0.822767
12.390	     0.820835
12.391	     0.818874
12.392	     0.816882
12.393	     0.814861
12.394	     0.812812
12.395	     0.810734
12.396	     0.808628
12.397	     0.806493
12.398	     0.804330
12.399	     0.802138
12.400	     0.799918
12.401	     0.797669
12.402	     0.795393
12.403	     0.793088
12.404	     0.790755
12.405	     0.788393
12.406	     0.786004
12.407	     0.783587
12.408	     0.781141
12.409	     0.778665
12.410	     0.776160
12.411	     0.773627
12.412	     0.771065
12.413	     0.768475
12.414	     0.765857
12.415	     0.763212
12.416	     0.760540
12.417	     0.757840
12.418	     0.755115
12.419	     0.752363
12.420	     0.749585
12.421	     0.746782
12.422	     0.743953
12.423	     0.741099
12.424	     0.738215
12.425	     0.735301
12.426	     0.732360
12.427	     0.729391
12.428	     0.726395
12.429	     0.723373
12.430	     0.720326
12.431	     0.717255
12.432	     0.714161
12.433	     0.711043
12.434	     0.707905
12.435	     0.704745
12.436	     0.701565
12.437	     0.698365
12.438	     0.695147
12.439	     0.691905
12.440	     0.688636
12.441	     0.685341
12.442	     0.682022
12.443	     0.678680
12.444	     0.675316
12.445	     0.671932
12.446	     0.668527
12.447	     0.665105
12.448	     0.661665
12.449	     0.658209
12.450	     0.654739
12.451	     0.651255
12.452	     0.647758
12.453	     0.644251
12.454	     0.640730
12.455	     0.637187
12.456	     0.633623
12.457	     0.630040
12.458	     0.626439
12.459	     0.622822
12.460	     0.619190
12.461	     0.615544
12.462	     0.611886
12.463	     0.608218
12.464	     0.604541
12.465	     0.600856
12.466	     0.597164
12.467	     0.593468
12.468	     0.589769
12.469	     0.586068
12.470	     0.582356
12.471	     0.578630
12.472	     0.574891
12.473	     0.571141
12.474	     0.567382
12.475	     0.563614
12.476	     0.559840
12.477	     0.556060
12.478	     0.552277
12.479	     0.548492
12.480	     0.544706
12.481	     0.540922
12.482	     0.537139
12.483	     0.533361
12.484	     0.529588
12.485	     0.525820
12.486	     0.522045
12.487	     0.518265
12.488	     0.514481
12.489	     0.510695
12.490	     0.506907
12.491	     0.503119
12.492	     0.499334
12.493	     0.495551
12.494	     0.491774
12.495	     0.488003
12.496	     0.484239
12.497	     0.480485
12.498	     0.476741
12.499	     0.473009
12.500	     0.469291
12.501	     0.465581
12.502	     0.461873
12.503	     0.458169
12.504	     0.454469
12.505	     0.450775
12.506	     0.447088
12.507	     0.443410
12.508	     0.439741
12.509	     0.436083
12.510	     0.432437
12.511	     0.428804
12.512	     0.425186
12.513	     0.421583
12.514	     0.417998
12.515	     0.414431
12.516	     0.410883
12.517	     0.407346
12.518	     0.403820
12.519	     0.400305
12.520	     0.396802
12.521	     0.393312
12.522	     0.389837
12.523	     0.386375
12.524	     0.382930
12.525	     0.379501
12.526	     0.376089
12.527	     0.372696
12.528	     0.369322
12.529	     0.365968
12.530	     0.362634
12.531	     0.359323
12.532	     0.356032
12.533	     0.352758
12.534	     0.349501
12.535	     0.346260
12.536	     0.343037
12.537	     0.339832
12.538	     0.336646
12.539	     0.333478
12.540	     0.330330
12.541	     0.327202
12.542	     0.324094
12.543	     0.321006
12.544	     0.317940
12.545	     0.314896
12.546	     0.311874
12.547	     0.308874
12.548	     0.305896
12.549	     0.302937
12.550	     0.299999
12.551	     0.297080
12.552	     0.294182
12.553	     0.291305
12.554	     0.288448
12.555	     0.285612
12.556	     0.282797
12.557	     0.280003
12.558	     0.277231
12.559	     0.274480
12.560	     0.271752
12.561	     0.269045
12.562	     0.266360
12.563	     0.263697
12.564	     0.261057
12.565	     0.258438
12.566	     0.255841
12.567	     0.253266
12.568	     0.250712
12.569	     0.248179
12.570	     0.245668
12.571	     0.243178
12.572	     0.240709
12.573	     0.238262
12.574	     0.235835
12.575	     0.233429
12.576	     0.231044
12.577	     0.228680
12.578	     0.226337
12.579	     0.224014
12.580	     0.221713
12.581	     0.219434
12.582	     0.217176
12.583	     0.214940
12.584	     0.212725
12.585	     0.210530
12.586	     0.208357
12.587	     0.206203
12.588	     0.204070
12.589	     0.201957
12.590	     0.199863
12.591	     0.197789
12.592	     0.195734
12.593	     0.193698
12.594	     0.191681
12.595	     0.189683
12.596	     0.187706
12.597	     0.185750
12.598	     0.183815
12.599	     0.181900
12.600	     0.180005
12.601	     0.178130
12.602	     0.176273
12.603	     0.174435
12.604	     0.172616
12.605	     0.170814
12.606	     0.169029
12.607	     0.167261
12.608	     0.165510
12.609	     0.163774
12.610	     0.162054
12.611	     0.160351
12.612	     0.158665
12.613	     0.156998
12.614	     0.155350
12.615	     0.153719
12.616	     0.152105
12.617	     0.150509
12.618	     0.148929
12.619	     0.147365
12.620	     0.145818
12.621	     0.144287
12.622	     0.142770
12.623	     0.141269
12.624	     0.139783
12.625	     0.138311
12.626	     0.136853
12.627	     0.135410
12.628	     0.133984
12.629	     0.132575
12.630	     0.131183
12.631	     0.129807
12.632	     0.128446
12.633	     0.127100
12.634	     0.125770
12.635	     0.124453
12.636	     0.123150
12.637	     0.121861
12.638	     0.120584
12.639	     0.119321
12.640	     0.118069
12.641	     0.116828
12.642	     0.115599
12.643	     0.114382
12.644	     0.113179
12.645	     0.111990
12.646	     0.110814
12.647	     0.109652
12.648	     0.108503
12.649	     0.107367
12.650	     0.106243
12.651	     0.105131
12.652	     0.104032
12.653	     0.102944
12.654	     0.101868
12.655	     0.100803
12.656	     0.099748
12.657	     0.098705
12.658	     0.097672
12.659	     0.096650
12.660	     0.095642
12.661	     0.094647
12.662	     0.093664
12.663	     0.092694
12.664	     0.091735
12.665	     0.090787
12.666	     0.089851
12.667	     0.088924
12.668	     0.088008
12.669	     0.087101
12.670	     0.086203
12.671	     0.085314
12.672	     0.084433
12.673	     0.083559
12.674	     0.082693
12.675	     0.081835
12.676	     0.080986
12.677	     0.080147
12.678	     0.079318
12.679	     0.078497
12.680	     0.077686
12.681	     0.076883
12.682	     0.076090
12.683	     0.075305
12.684	     0.074529
12.685	     0.073761
12.686	     0.073002
12.687	     0.072250
12.688	     0.071507
12.689	     0.070772
12.690	     0.070044
12.691	     0.069324
12.692	     0.068614
12.693	     0.067914
12.694	     0.067223
12.695	     0.066540
12.696	     0.065867
12.697	     0.065201
12.698	     0.064543
12.699	     0.063893
12.700	     0.063249
12.701	     0.062613
12.702	     0.061983
12.703	     0.061358
12.704	     0.060740
12.705	     0.060126
12.706	     0.059518
12.707	     0.058914
12.708	     0.058317
12.709	     0.057726
12.710	     0.057142
12.711	     0.056564
12.712	     0.055992
12.713	     0.055427
12.714	     0.054867
12.715	     0.054314
12.716	     0.053768
12.717	     0.053227
12.718	     0.052692
12.719	     0.052163
12.720	     0.051640
12.721	     0.051122
12.722	     0.050611
12.723	     0.050105
12.724	     0.049606
12.725	     0.049114
12.726	     0.048630
12.727	     0.048152
12.728	     0.047680
12.729	     0.047214
12.730	     0.046754
12.731	     0.046299
12.732	     0.045849
12.733	     0.045403
12.734	     0.044962
12.735	     0.044525
12.736	     0.044092
12.737	     0.043662
12.738	     0.043235
12.739	     0.042810
12.740	     0.042390
12.741	     0.041973
12.742	     0.041560
12.743	     0.041152
12.744	     0.040748
12.745	     0.040348
12.746	     0.039952
12.747	     0.039560
12.748	     0.039172
12.749	     0.038789
12.750	     0.038410
12.751	     0.038034
12.752	     0.037664
12.753	     0.037297
12.754	     0.036934
12.755	     0.036576
12.756	     0.036222
12.757	     0.035873
12.758	     0.035530
12.759	     0.035191
12.760	     0.034857
12.761	     0.034527
12.762	     0.034200
12.763	     0.033878
12.764	     0.033560
12.765	     0.033244
12.766	     0.032932
12.767	     0.032623
12.768	     0.032316
12.769	     0.032012
12.770	     0.031710
12.771	     0.031410
12.772	     0.031112
12.773	     0.030816
12.774	     0.030524
12.775	     0.030234
12.776	     0.029947
12.777	     0.029663
12.778	     0.029382
12.779	     0.029104
12.780	     0.028829
12.781	     0.028556
12.782	     0.028287
12.783	     0.028020
12.784	     0.027757
12.785	     0.027497
12.786	     0.027239
12.787	     0.026985
12.788	     0.026734
12.789	     0.026487
12.790	     0.026243
12.791	     0.026003
12.792	     0.025766
12.793	     0.025532
12.794	     0.025301
12.795	     0.025074
12.796	     0.024848
12.797	     0.024626
12.798	     0.024405
12.799	     0.024187
12.800	     0.023971
12.801	     0.023756
12.802	     0.023543
12.803	     0.023332
12.804	     0.023121
12.805	     0.022912
12.806	     0.022705
12.807	     0.022500
12.808	     0.022297
12.809	     0.022096
12.810	     0.021897
12.811	     0.021700
12.812	     0.021505
12.813	     0.021312
12.814	     0.021121
12.815	     0.020932
12.816	     0.020745
12.817	     0.020560
12.818	     0.020378
12.819	     0.020197
12.820	     0.020019
12.821	     0.019843
12.822	     0.019670
12.823	     0.019499
12.824	     0.019330
12.825	     0.019164
12.826	     0.019000
12.827	     0.018839
12.828	     0.018679
12.829	     0.018521
12.830	     0.018365
12.831	     0.018210
12.832	     0.018057
12.833	     0.017905
12.834	     0.017755
12.835	     0.017605
12.836	     0.017457
12.837	     0.017309
12.838	     0.017163
12.839	     0.017018
12.840	     0.016875
12.841	     0.016733
12.842	     0.016592
12.843	     0.016453
12.844	     0.016316
12.845	     0.016179
12.846	     0.016045
12.847	     0.015911
12.848	     0.015779
12.849	     0.015648
12.850	     0.015519
12.851	     0.015391
12.852	     0.015265
12.853	     0.015140
12.854	     0.015016
12.855	     0.014894
12.856	     0.014774
12.857	     0.014655
12.858	     0.014538
12.859	     0.014423
12.860	     0.014309
12.861	     0.014196
12.862	     0.014084
12.863	     0.013974
12.864	     0.013864
12.865	     0.013756
12.866	     0.013648
12.867	     0.013541
12.868	     0.013435
12.869	     0.013330
12.870	     0.013225
12.871	     0.013120
12.872	     0.013017
12.873	     0.012914
12.874	     0.012813
12.875	     0.012712
12.876	     0.012612
12.877	     0.012513
12.878	     0.012415
12.879	     0.012318
12.880	     0.012222
12.881	     0.012126
12.882	     0.012032
12.883	     0.011938
12.884	     0.011845
12.885	     0.011753
12.886	     0.011662
12.887	     0.011572
12.888	     0.011482
12.889	     0.011394
12.890	     0.011306
12.891	     0.011220
12.892	     0.011135
12.893	     0.011050
12.894	     0.010966
12.895	     0.010883
12.896	     0.010800
12.897	     0.010719
12.898	     0.010638
12.899	     0.010557
12.900	     0.010477
12.901	     0.010398
12.902	     0.010319
12.903	     0.010240
12.904	     0.010162
12.905	     0.010084
12.906	     0.010007
12.907	     0.009931
12.908	     0.009855
12.909	     0.009780
12.910	     0.009706
12.911	     0.009632
12.912	     0.009558
12.913	     0.009486
12.914	     0.009413
12.915	     0.009342
12.916	     0.009271
12.917	     0.009200
12.918	     0.009130
12.919	     0.009060
12.920	     0.008991
12.921	     0.008922
12.922	     0.008854
12.923	     0.008787
12.924	     0.008721
12.925	     0.008655
12.926	     0.008589
12.927	     0.008524
12.928	     0.008460
12.929	     0.008396
12.930	     0.008332
12.931	     0.008269
12.932	     0.008206
12.933	     0.008143
12.934	     0.008081
12.935	     0.008019
12.936	     0.007957
12.937	     0.007895
12.938	     0.007834
12.939	     0.007772
12.940	     0.007712
12.941	     0.007652
12.942	     0.007592
12.943	     0.007532
12.944	     0.007473
12.945	     0.007414
12.946	     0.007355
12.947	     0.007297
12.948	     0.007238
12.949	     0.007181
12.950	     0.007123
12.951	     0.007065
12.952	     0.007008
12.953	     0.006951
12.954	     0.006894
12.955	     0.006837
12.956	     0.006781
12.957	     0.006725
12.958	     0.006669
12.959	     0.006613
12.960	     0.006558
12.961	     0.006503
12.962	     0.006448
12.963	     0.006393
12.964	     0.006339
12.965	     0.006284
12.966	     0.006230
12.967	     0.006176
12.968	     0.006123
12.969	     0.006069
12.970	     0.006016
12.971	     0.005962
12.972	     0.005909
12.973	     0.005856
12.974	     0.005803
12.975	     0.005750
12.976	     0.005698
12.977	     0.005645
12.978	     0.005593
12.979	     0.005541
12.980	     0.005489
12.981	     0.005438
12.982	     0.005387
12.983	     0.005336
12.984	     0.005285
12.985	     0.005235
12.986	     0.005185
12.987	     0.005136
12.988	     0.005087
12.989	     0.005038
12.990	     0.004989
12.991	     0.004941
12.992	     0.004892
12.993	     0.004844
12.994	     0.004797
12.995	     0.004749
12.996	     0.004702
12.997	     0.004656
12.998	     0.004610
12.999	     0.004564
13.000	     0.004519
13.001	     0.004474
13.002	     0.004430
13.003	     0.004386
13.004	     0.004343
13.005	     0.004301
13.006	     0.004259
13.007	     0.004217
13.008	     0.004176
13.009	     0.004136
13.010	     0.004095
13.011	     0.004055
13.012	     0.004016
13.013	     0.003977
13.014	     0.003939
13.015	     0.003901
13.016	     0.003864
13.017	     0.003828
13.018	     0.003792
13.019	     0.003756
13.020	     0.003721
13.021	     0.003687
13.022	     0.003653
13.023	     0.003620
13.024	     0.003588
13.025	     0.003556
13.026	     0.003525
13.027	     0.003494
13.028	     0.003464
13.029	     0.003434
13.030	     0.003405
13.031	     0.003377
13.032	     0.003349
13.033	     0.003321
13.034	     0.003294
13.035	     0.003267
13.036	     0.003241
13.037	     0.003215
13.038	     0.003190
13.039	     0.003165
13.040	     0.003141
13.041	     0.003117
13.042	     0.003095
13.043	     0.003072
13.044	     0.003050
13.045	     0.003029
13.046	     0.003008
13.047	     0.002987
13.048	     0.002967
13.049	     0.002947
13.050	     0.002928
13.051	     0.002908
13.052	     0.002889
13.053	     0.002870
13.054	     0.002852
13.055	     0.002833
13.056	     0.002815
13.057	     0.002797
13.058	     0.002779
13.059	     0.002762
13.060	     0.002745
13.061	     0.002729
13.062	     0.002712
13.063	     0.002696
13.064	     0.002681
13.065	     0.002665
13.066	     0.002650
13.067	     0.002634
13.068	     0.002619
13.069	     0.002604
13.070	     0.002590
13.071	     0.002575
13.072	     0.002560
13.073	     0.002546
13.074	     0.002531
13.075	     0.002517
13.076	     0.002503
13.077	     0.002489
13.078	     0.002476
13.079	     0.002462
13.080	     0.002449
13.081	     0.002436
13.082	     0.002423
13.083	     0.002410
13.084	     0.002397
13.085	     0.002385
13.086	     0.002372
13.087	     0.002360
13.088	     0.002347
13.089	     0.002335
13.090	     0.002323
13.091	     0.002311
13.092	     0.002299
13.093	     0.002288
13.094	     0.002276
13.095	     0.002264
13.096	     0.002253
13.097	     0.002242
13.098	     0.002231
13.099	     0.002220
13.100	     0.002209
13.101	     0.002198
13.102	     0.002188
13.103	     0.002178
13.104	     0.002168
13.105	     0.002158
13.106	     0.002149
13.107	     0.002140
13.108	     0.002131
13.109	     0.002122
13.110	     0.002114
13.111	     0.002106
13.112	     0.002098
13.113	     0.002090
13.114	     0.002082
13.115	     0.002075
13.116	     0.002067
13.117	     0.002060
13.118	     0.002053
13.119	     0.002046
13.120	     0.002040
13.121	     0.002033
13.122	     0.002027
13.123	     0.002020
13.124	     0.002014
13.125	     0.002008
13.126	     0.002003
13.127	     0.001997
13.128	     0.001992
13.129	     0.001987
13.130	     0.001982
13.131	     0.001978
13.132	     0.001973
13.133	     0.001968
13.134	     0.001964
13.135	     0.001960
13.136	     0.001955
13.137	     0.001951
13.138	     0.001946
13.139	     0.001942
13.140	     0.001937
13.141	     0.001933
13.142	     0.001928
13.143	     0.001924
13.144	     0.001920
13.145	     0.001916
13.146	     0.001912
13.147	     0.001908
13.148	     0.001904
13.149	     0.001900
13.150	     0.001896
13.151	     0.001892
13.152	     0.001887
13.153	     0.001883
13.154	     0.001878
13.155	     0.001873
13.156	     0.001867
13.157	     0.001861
13.158	     0.001855
13.159	     0.001849
13.160	     0.001842
13.161	     0.001835
13.162	     0.001829
13.163	     0.001821
13.164	     0.001814
13.165	     0.001807
13.166	     0.001799
13.167	     0.001791
13.168	     0.001783
13.169	     0.001774
13.170	     0.001765
13.171	     0.001756
13.172	     0.001747
13.173	     0.001737
13.174	     0.001727
13.175	     0.001716
13.176	     0.001705
13.177	     0.001693
13.178	     0.001682
13.179	     0.001670
13.180	     0.001657
13.181	     0.001644
13.182	     0.001631
13.183	     0.001618
13.184	     0.001604
13.185	     0.001590
13.186	     0.001576
13.187	     0.001561
13.188	     0.001547
13.189	     0.001532
13.190	     0.001516
13.191	     0.001501
13.192	     0.001485
13.193	     0.001470
13.194	     0.001453
13.195	     0.001437
13.196	     0.001420
13.197	     0.001402
13.198	     0.001384
13.199	     0.001366
13.200	     0.001348
13.201	     0.001330
13.202	     0.001311
13.203	     0.001293
13.204	     0.001274
13.205	     0.001255
13.206	     0.001237
13.207	     0.001218
13.208	     0.001200
13.209	     0.001181
13.210	     0.001163
13.211	     0.001145
13.212	     0.001127
13.213	     0.001108
13.214	     0.001090
13.215	     0.001071
13.216	     0.001053
13.217	     0.001034
13.218	     0.001015
13.219	     0.000997
13.220	     0.000978
13.221	     0.000960
13.222	     0.000942
13.223	     0.000924
13.224	     0.000907
13.225	     0.000890
13.226	     0.000873
13.227	     0.000856
13.228	     0.000840
13.229	     0.000825
13.230	     0.000809
13.231	     0.000793
13.232	     0.000778
13.233	     0.000763
13.234	     0.000748
13.235	     0.000734
13.236	     0.000719
13.237	     0.000705
13.238	     0.000691
13.239	     0.000678
13.240	     0.000665
13.241	     0.000652
13.242	     0.000640
13.243	     0.000627
13.244	     0.000616
13.245	     0.000604
13.246	     0.000593
13.247	     0.000583
13.248	     0.000573
13.249	     0.000563
13.250	     0.000554
13.251	     0.000545
13.252	     0.000536
13.253	     0.000528
13.254	     0.000519
13.255	     0.000512
13.256	     0.000504
13.257	     0.000497
13.258	     0.000489
13.259	     0.000482
13.260	     0.000475
13.261	     0.000468
13.262	     0.000462
13.263	     0.000455
13.264	     0.000449
13.265	     0.000443
13.266	     0.000438
13.267	     0.000432
13.268	     0.000427
13.269	     0.000422
13.270	     0.000418
13.271	     0.000413
13.272	     0.000409
13.273	     0.000404
13.274	     0.000400
13.275	     0.000396
13.276	     0.000392
13.277	     0.000387
13.278	     0.000383
13.279	     0.000378
13.280	     0.000373
13.281	     0.000368
13.282	     0.000364
13.283	     0.000359
13.284	     0.000354
13.285	     0.000350
13.286	     0.000345
13.287	     0.000340
13.288	     0.000336
13.289	     0.000331
13.290	     0.000326
13.291	     0.000322
13.292	     0.000317
13.293	     0.000312
13.294	     0.000307
13.295	     0.000301
13.296	     0.000296
13.297	     0.000290
13.298	     0.000284
13.299	     0.000278
13.300	     0.000272
13.301	     0.000266
13.302	     0.000259
13.303	     0.000253
13.304	     0.000246
13.305	     0.000239
13.306	     0.000232
13.307	     0.000225
13.308	     0.000218
13.309	     0.000211
13.310	     0.000204
13.311	     0.000197
13.312	     0.000189
13.313	     0.000182
13.314	     0.000175
13.315	     0.000168
13.316	     0.000161
13.317	     0.000154
13.318	     0.000147
13.319	     0.000140
13.320	     0.000132
13.321	     0.000125
13.322	     0.000117
13.323	     0.000110
13.324	     0.000102
13.325	     0.000095
13.326	     0.000087
13.327	     0.000080
13.328	     0.000073
13.329	     0.000066
13.330	     0.000060
13.331	     0.000054
13.332	     0.000048
13.333	     0.000042
13.334	     0.000037
13.335	     0.000032
13.336	     0.000027
13.337	     0.000022
13.338	     0.000018
13.339	     0.000013
13.340	     0.000009
13.341	     0.000005
13.342	     0.000001
13.343	     -0.000003
13.344	     -0.000006
13.345	     -0.000009
13.346	     -0.000012
13.347	     -0.000014
13.348	     -0.000016
13.349	     -0.000018
13.350	     -0.000019
13.351	     -0.000020
13.352	     -0.000021
13.353	     -0.000021
13.354	     -0.000020
13.355	     -0.000019
13.356	     -0.000018
13.357	     -0.000017
13.358	     -0.000015
13.359	     -0.000013
13.360	     -0.000010
13.361	     -0.000008
13.362	     -0.000005
13.363	     -0.000002
13.364	     0.000002
13.365	     0.000005
13.366	     0.000009
13.367	     0.000013
13.368	     0.000017
13.369	     0.000021
13.370	     0.000025
13.371	     0.000030
13.372	     0.000035
13.373	     0.000040
13.374	     0.000046
13.375	     0.000052
13.376	     0.000058
13.377	     0.000065
13.378	     0.000071
13.379	     0.000078
13.380	     0.000084
13.381	     0.000091
13.382	     0.000097
13.383	     0.000104
13.384	     0.000110
13.385	     0.000116
13.386	     0.000122
13.387	     0.000128
13.388	     0.000133
13.389	     0.000139
13.390	     0.000145
13.391	     0.000151
13.392	     0.000156
13.393	     0.000162
13.394	     0.000168
13.395	     0.000174
13.396	     0.000179
13.397	     0.000185
13.398	     0.000190
13.399	     0.000195
13.400	     0.000200
13.401	     0.000205
13.402	     0.000209
13.403	     0.000213
13.404	     0.000217
13.405	     0.000221
13.406	     0.000224
13.407	     0.000227
13.408	     0.000230
13.409	     0.000232
13.410	     0.000235
13.411	     0.000237
13.412	     0.000239
13.413	     0.000241
13.414	     0.000242
13.415	     0.000244
13.416	     0.000245
13.417	     0.000246
13.418	     0.000247
13.419	     0.000248
13.420	     0.000248
13.421	     0.000249
13.422	     0.000249
13.423	     0.000249
13.424	     0.000249
13.425	     0.000248
13.426	     0.000247
13.427	     0.000246
13.428	     0.000245
13.429	     0.000244
13.430	     0.000242
13.431	     0.000241
13.432	     0.000239
13.433	     0.000237
13.434	     0.000235
13.435	     0.000233
13.436	     0.000231
13.437	     0.000228
13.438	     0.000226
13.439	     0.000224
13.440	     0.000221
13.441	     0.000219
13.442	     0.000216
13.443	     0.000214
13.444	     0.000211
13.445	     0.000209
13.446	     0.000206
13.447	     0.000203
13.448	     0.000200
13.449	     0.000197
13.450	     0.000194
13.451	     0.000190
13.452	     0.000187
13.453	     0.000184
13.454	     0.000180
13.455	     0.000177
13.456	     0.000173
13.457	     0.000170
13.458	     0.000166
13.459	     0.000163
13.460	     0.000159
13.461	     0.000155
13.462	     0.000151
13.463	     0.000148
13.464	     0.000144
13.465	     0.000140
13.466	     0.000136
13.467	     0.000132
13.468	     0.000128
13.469	     0.000124
13.470	     0.000120
13.471	     0.000115
13.472	     0.000111
13.473	     0.000106
13.474	     0.000101
13.475	     0.000096
13.476	     0.000091
13.477	     0.000085
13.478	     0.000079
13.479	     0.000073
13.480	     0.000068
13.481	     0.000061
13.482	     0.000055
13.483	     0.000049
13.484	     0.000042
13.485	     0.000036
13.486	     0.000029
13.487	     0.000022
13.488	     0.000015
13.489	     0.000007
13.490	     0.000000
13.491	     -0.000008
13.492	     -0.000015
13.493	     -0.000023
13.494	     -0.000032
13.495	     -0.000040
13.496	     -0.000049
13.497	     -0.000058
13.498	     -0.000067
13.499	     -0.000076
13.500	     -0.000086
13.501	     -0.000096
13.502	     -0.000106
13.503	     -0.000116
13.504	     -0.000126
13.505	     -0.000137
13.506	     -0.000147
13.507	     -0.000158
13.508	     -0.000168
13.509	     -0.000179
13.510	     -0.000190
13.511	     -0.000200
13.512	     -0.000210
13.513	     -0.000221
13.514	     -0.000231
13.515	     -0.000241
13.516	     -0.000252
13.517	     -0.000263
13.518	     -0.000274
13.519	     -0.000285
13.520	     -0.000296
13.521	     -0.000307
13.522	     -0.000318
13.523	     -0.000328
13.524	     -0.000339
13.525	     -0.000350
13.526	     -0.000360
13.527	     -0.000370
13.528	     -0.000379
13.529	     -0.000389
13.530	     -0.000397
13.531	     -0.000406
13.532	     -0.000414
13.533	     -0.000421
13.534	     -0.000429
13.535	     -0.000436
13.536	     -0.000443
13.537	     -0.000450
13.538	     -0.000457
13.539	     -0.000463
13.540	     -0.000469
13.541	     -0.000475
13.542	     -0.000480
13.543	     -0.000485
13.544	     -0.000489
13.545	     -0.000493
13.546	     -0.000497
13.547	     -0.000500
13.548	     -0.000503
13.549	     -0.000505
13.550	     -0.000506
13.551	     -0.000507
13.552	     -0.000507
13.553	     -0.000506
13.554	     -0.000506
13.555	     -0.000504
13.556	     -0.000503
13.557	     -0.000500
13.558	     -0.000498
13.559	     -0.000495
13.560	     -0.000491
13.561	     -0.000487
13.562	     -0.000483
13.563	     -0.000478
13.564	     -0.000473
13.565	     -0.000468
13.566	     -0.000462
13.567	     -0.000455
13.568	     -0.000449
13.569	     -0.000442
13.570	     -0.000434
13.571	     -0.000426
13.572	     -0.000418
13.573	     -0.000408
13.574	     -0.000399
13.575	     -0.000389
13.576	     -0.000378
13.577	     -0.000367
13.578	     -0.000356
13.579	     -0.000345
13.580	     -0.000334
13.581	     -0.000322
13.582	     -0.000310
13.583	     -0.000298
13.584	     -0.000286
13.585	     -0.000275
13.586	     -0.000263
13.587	     -0.000251
13.588	     -0.000239
13.589	     -0.000227
13.590	     -0.000215
13.591	     -0.000202
13.592	     -0.000189
13.593	     -0.000176
13.594	     -0.000162
13.595	     -0.000149
13.596	     -0.000136
13.597	     -0.000122
13.598	     -0.000109
13.599	     -0.000096
13.600	     -0.000083
13.601	     -0.000070
13.602	     -0.000058
13.603	     -0.000045
13.604	     -0.000034
13.605	     -0.000023
13.606	     -0.000012
13.607	     -0.000001
13.608	     0.000010
13.609	     0.000020
13.610	     0.000031
13.611	     0.000041
13.612	     0.000051
13.613	     0.000061
13.614	     0.000071
13.615	     0.000080
13.616	     0.000089
13.617	     0.000098
13.618	     0.000107
13.619	     0.000115
13.620	     0.000122
13.621	     0.000130
13.622	     0.000137
13.623	     0.000143
13.624	     0.000149
13.625	     0.000154
13.626	     0.000159
13.627	     0.000164
13.628	     0.000168
13.629	     0.000172
13.630	     0.000176
13.631	     0.000179
13.632	     0.000182
13.633	     0.000184
13.634	     0.000186
13.635	     0.000188
13.636	     0.000190
13.637	     0.000191
13.638	     0.000192
13.639	     0.000192
13.640	     0.000192
13.641	     0.000192
13.642	     0.000192
13.643	     0.000191
13.644	     0.000190
13.645	     0.000188
13.646	     0.000186
13.647	     0.000184
13.648	     0.000181
13.649	     0.000178
13.650	     0.000174
13.651	     0.000171
13.652	     0.000167
13.653	     0.000162
13.654	     0.000158
13.655	     0.000153
13.656	     0.000149
13.657	     0.000144
13.658	     0.000139
13.659	     0.000133
13.660	     0.000128
13.661	     0.000123
13.662	     0.000118
13.663	     0.000112
13.664	     0.000106
13.665	     0.000100
13.666	     0.000094
13.667	     0.000087
13.668	     0.000080
13.669	     0.000074
13.670	     0.000067
13.671	     0.000060
13.672	     0.000052
13.673	     0.000045
13.674	     0.000038
13.675	     0.000031
13.676	     0.000024
13.677	     0.000016
13.678	     0.000009
13.679	     0.000002
13.680	     -0.000004
13.681	     -0.000011
13.682	     -0.000018
13.683	     -0.000025
13.684	     -0.000032
13.685	     -0.000039
13.686	     -0.000046
13.687	     -0.000053
13.688	     -0.000060
13.689	     -0.000067
13.690	     -0.000074
13.691	     -0.000081
13.692	     -0.000088
13.693	     -0.000095
13.694	     -0.000102
13.695	     -0.000109
13.696	     -0.000115
13.697	     -0.000121
13.698	     -0.000128
13.699	     -0.000134
13.700	     -0.000140
13.701	     -0.000146
13.702	     -0.000152
13.703	     -0.000158
13.704	     -0.000163
13.705	     -0.000169
13.706	     -0.000175
13.707	     -0.000180
13.708	     -0.000186
13.709	     -0.000191
13.710	     -0.000196
13.711	     -0.000201
13.712	     -0.000206
13.713	     -0.000211
13.714	     -0.000216
13.715	     -0.000220
13.716	     -0.000225
13.717	     -0.000229
13.718	     -0.000233
13.719	     -0.000237
13.720	     -0.000241
13.721	     -0.000245
13.722	     -0.000248
13.723	     -0.000252
13.724	     -0.000256
13.725	     -0.000259
13.726	     -0.000262
13.727	     -0.000265
13.728	     -0.000268
13.729	     -0.000271
13.730	     -0.000273
13.731	     -0.000276
13.732	     -0.000278
13.733	     -0.000280
13.734	     -0.000282
13.735	     -0.000283
13.736	     -0.000284
13.737	     -0.000285
13.738	     -0.000286
13.739	     -0.000287
13.740	     -0.000288
13.741	     -0.000288
13.742	     -0.000288
13.743	     -0.000288
13.744	     -0.000288
13.745	     -0.000288
13.746	     -0.000287
13.747	     -0.000287
13.748	     -0.000286
13.749	     -0.000284
13.750	     -0.000283
13.751	     -0.000281
13.752	     -0.000279
13.753	     -0.000277
13.754	     -0.000274
13.755	     -0.000271
13.756	     -0.000268
13.757	     -0.000264
13.758	     -0.000260
13.759	     -0.000256
13.760	     -0.000252
13.761	     -0.000247
13.762	     -0.000242
13.763	     -0.000237
13.764	     -0.000232
13.765	     -0.000226
13.766	     -0.000220
13.767	     -0.000214
13.768	     -0.000208
13.769	     -0.000201
13.770	     -0.000194
13.771	     -0.000187
13.772	     -0.000180
13.773	     -0.000172
13.774	     -0.000165
13.775	     -0.000157
13.776	     -0.000148
13.777	     -0.000139
13.778	     -0.000130
13.779	     -0.000121
13.780	     -0.000111
13.781	     -0.000102
13.782	     -0.000092
13.783	     -0.000081
13.784	     -0.000071
13.785	     -0.000060
13.786	     -0.000050
13.787	     -0.000039
13.788	     -0.000028
13.789	     -0.000017
13.790	     -0.000006
13.791	     0.000005
13.792	     0.000016
13.793	     0.000026
13.794	     0.000037
13.795	     0.000048
13.796	     0.000060
13.797	     0.000071
13.798	     0.000083
13.799	     0.000095
13.800	     0.000107
13.801	     0.000119
13.802	     0.000131
13.803	     0.000143
13.804	     0.000155
13.805	     0.000166
13.806	     0.000178
13.807	     0.000190
13.808	     0.000201
13.809	     0.000212
13.810	     0.000223
13.811	     0.000233
13.812	     0.000244
13.813	     0.000254
13.814	     0.000263
13.815	     0.000273
13.816	     0.000283
13.817	     0.000293
13.818	     0.000303
13.819	     0.000312
13.820	     0.000321
13.821	     0.000330
13.822	     0.000339
13.823	     0.000348
13.824	     0.000356
13.825	     0.000364
13.826	     0.000372
13.827	     0.000379
13.828	     0.000386
13.829	     0.000393
13.830	     0.000399
13.831	     0.000405
13.832	     0.000410
13.833	     0.000415
13.834	     0.000420
13.835	     0.000424
13.836	     0.000428
13.837	     0.000432
13.838	     0.000435
13.839	     0.000438
13.840	     0.000441
13.841	     0.000444
13.842	     0.000446
13.843	     0.000447
13.844	     0.000449
13.845	     0.000450
13.846	     0.000451
13.847	     0.000451
13.848	     0.000451
13.849	     0.000451
13.850	     0.000450
13.851	     0.000449
13.852	     0.000448
13.853	     0.000446
13.854	     0.000444
13.855	     0.000441
13.856	     0.000439
13.857	     0.000435
13.858	     0.000432
13.859	     0.000428
13.860	     0.000423
13.861	     0.000419
13.862	     0.000414
13.863	     0.000409
13.864	     0.000404
13.865	     0.000399
13.866	     0.000393
13.867	     0.000387
13.868	     0.000381
13.869	     0.000375
13.870	     0.000369
13.871	     0.000363
13.872	     0.000356
13.873	     0.000349
13.874	     0.000341
13.875	     0.000334
13.876	     0.000326
13.877	     0.000318
13.878	     0.000309
13.879	     0.000301
13.880	     0.000292
13.881	     0.000284
13.882	     0.000275
13.883	     0.000266
13.884	     0.000257
13.885	     0.000248
13.886	     0.000239
13.887	     0.000230
13.888	     0.000221
13.889	     0.000212
13.890	     0.000203
13.891	     0.000194
13.892	     0.000185
13.893	     0.000176
13.894	     0.000166
13.895	     0.000157
13.896	     0.000147
13.897	     0.000138
13.898	     0.000128
13.899	     0.000118
13.900	     0.000109
13.901	     0.000099
13.902	     0.000090
13.903	     0.000080
13.904	     0.000071
13.905	     0.000061
13.906	     0.000052
13.907	     0.000043
13.908	     0.000034
13.909	     0.000026
13.910	     0.000017
13.911	     0.000008
13.912	     -0.000001
13.913	     -0.000009
13.914	     -0.000018
13.915	     -0.000027
13.916	     -0.000035
13.917	     -0.000044
13.918	     -0.000052
13.919	     -0.000060
13.920	     -0.000069
13.921	     -0.000077
13.922	     -0.000085
13.923	     -0.000093
13.924	     -0.000100
13.925	     -0.000108
13.926	     -0.000115
13.927	     -0.000123
13.928	     -0.000130
13.929	     -0.000137
13.930	     -0.000143
13.931	     -0.000150
13.932	     -0.000157
13.933	     -0.000163
13.934	     -0.000170
13.935	     -0.000176
13.936	     -0.000182
13.937	     -0.000188
13.938	     -0.000194
13.939	     -0.000200
13.940	     -0.000206
13.941	     -0.000211
13.942	     -0.000217
13.943	     -0.000222
13.944	     -0.000227
13.945	     -0.000232
13.946	     -0.000236
13.947	     -0.000241
13.948	     -0.000245
13.949	     -0.000249
13.950	     -0.000253
13.951	     -0.000257
13.952	     -0.000261
13.953	     -0.000264
13.954	     -0.000268
13.955	     -0.000271
13.956	     -0.000274
13.957	     -0.000277
13.958	     -0.000280
13.959	     -0.000282
13.960	     -0.000285
13.961	     -0.000287
13.962	     -0.000290
13.963	     -0.000292
13.964	     -0.000294
13.965	     -0.000295
13.966	     -0.000297
13.967	     -0.000298
13.968	     -0.000300
13.969	     -0.000301
13.970	     -0.000302
13.971	     -0.000303
13.972	     -0.000303
13.973	     -0.000304
13.974	     -0.000304
13.975	     -0.000304
13.976	     -0.000304
13.977	     -0.000304
13.978	     -0.000304
13.979	     -0.000304
13.980	     -0.000303
13.981	     -0.000303
13.982	     -0.000302
13.983	     -0.000302
13.984	     -0.000301
13.985	     -0.000300
13.986	     -0.000299
13.987	     -0.000298
13.988	     -0.000297
13.989	     -0.000295
13.990	     -0.000294
13.991	     -0.000292
13.992	     -0.000291
13.993	     -0.000289
13.994	     -0.000287
13.995	     -0.000285
13.996	     -0.000283
13.997	     -0.000281
13.998	     -0.000279
13.999	     -0.000276
14.000	     -0.000274
